Channel              :,CH1
Frequency            :,1.010kHz
Period               :,0.990ms
PK-PK                :,230.5mV
Probe attenuation    :,1X
Voltage per ADC value:,0.244141mV
Time interval        :,1.00000us

index,CH1_Voltage(mV)
1,-62.500000
2,-62.500000
3,-58.593750
4,-62.500000
5,-58.593750
6,-58.593750
7,-58.593750
8,-58.593750
9,-58.593750
10,-58.593750
11,-54.687500
12,-54.687500
13,-54.687500
14,-54.687500
15,-50.781250
16,-50.781250
17,-50.781250
18,-50.781250
19,-50.781250
20,-50.781250
21,-46.875000
22,-46.875000
23,-46.875000
24,-46.875000
25,-46.875000
26,-46.875000
27,-42.968750
28,-42.968750
29,-42.968750
30,-42.968750
31,-39.062500
32,-39.062500
33,-39.062500
34,-39.062500
35,-39.062500
36,-35.156250
37,-35.156250
38,-35.156250
39,-35.156250
40,-35.156250
41,-35.156250
42,-31.250000
43,-31.250000
44,-31.250000
45,-31.250000
46,-31.250000
47,-27.343750
48,-27.343750
49,-27.343750
50,-27.343750
51,-27.343750
52,-27.343750
53,-23.437500
54,-23.437500
55,-23.437500
56,-23.437500
57,-23.437500
58,-19.531250
59,-19.531250
60,-19.531250
61,-19.531250
62,-15.625000
63,-15.625000
64,-15.625000
65,-15.625000
66,-15.625000
67,-15.625000
68,-15.625000
69,-11.718750
70,-11.718750
71,-11.718750
72,-11.718750
73,-11.718750
74,-7.812500
75,-7.812500
76,-7.812500
77,-7.812500
78,-7.812500
79,-7.812500
80,-3.906250
81,-3.906250
82,-3.906250
83,-3.906250
84,-3.906250
85,0.000000
86,0.000000
87,0.000000
88,0.000000
89,0.000000
90,3.906250
91,3.906250
92,3.906250
93,3.906250
94,3.906250
95,3.906250
96,7.812500
97,7.812500
98,7.812500
99,7.812500
100,7.812500
101,11.718750
102,11.718750
103,11.718750
104,11.718750
105,11.718750
106,11.718750
107,15.625000
108,15.625000
109,15.625000
110,15.625000
111,15.625000
112,19.531250
113,19.531250
114,19.531250
115,19.531250
116,19.531250
117,19.531250
118,19.531250
119,19.531250
120,23.437500
121,23.437500
122,23.437500
123,23.437500
124,27.343750
125,27.343750
126,27.343750
127,27.343750
128,27.343750
129,27.343750
130,27.343750
131,31.250000
132,31.250000
133,31.250000
134,31.250000
135,31.250000
136,31.250000
137,35.156250
138,35.156250
139,35.156250
140,35.156250
141,35.156250
142,39.062500
143,39.062500
144,39.062500
145,39.062500
146,39.062500
147,39.062500
148,39.062500
149,39.062500
150,42.968750
151,42.968750
152,42.968750
153,42.968750
154,42.968750
155,42.968750
156,46.875000
157,46.875000
158,46.875000
159,46.875000
160,46.875000
161,46.875000
162,50.781250
163,50.781250
164,50.781250
165,50.781250
166,50.781250
167,50.781250
168,54.687500
169,54.687500
170,54.687500
171,54.687500
172,54.687500
173,54.687500
174,54.687500
175,58.593750
176,54.687500
177,58.593750
178,58.593750
179,58.593750
180,58.593750
181,58.593750
182,58.593750
183,58.593750
184,58.593750
185,62.500000
186,62.500000
187,62.500000
188,62.500000
189,62.500000
190,62.500000
191,62.500000
192,66.406250
193,66.406250
194,66.406250
195,66.406250
196,66.406250
197,66.406250
198,66.406250
199,70.312500
200,70.312500
201,70.312500
202,70.312500
203,70.312500
204,70.312500
205,70.312500
206,70.312500
207,74.218750
208,70.312500
209,74.218750
210,74.218750
211,74.218750
212,74.218750
213,74.218750
214,74.218750
215,74.218750
216,74.218750
217,74.218750
218,78.125000
219,78.125000
220,78.125000
221,78.125000
222,78.125000
223,78.125000
224,78.125000
225,78.125000
226,78.125000
227,78.125000
228,78.125000
229,82.031250
230,82.031250
231,82.031250
232,82.031250
233,82.031250
234,82.031250
235,82.031250
236,82.031250
237,82.031250
238,82.031250
239,82.031250
240,82.031250
241,85.937500
242,85.937500
243,85.937500
244,85.937500
245,85.937500
246,85.937500
247,85.937500
248,85.937500
249,85.937500
250,85.937500
251,85.937500
252,85.937500
253,89.843750
254,89.843750
255,89.843750
256,89.843750
257,89.843750
258,89.843750
259,89.843750
260,89.843750
261,89.843750
262,89.843750
263,89.843750
264,89.843750
265,89.843750
266,89.843750
267,93.750000
268,93.750000
269,93.750000
270,93.750000
271,93.750000
272,93.750000
273,93.750000
274,93.750000
275,93.750000
276,93.750000
277,93.750000
278,93.750000
279,93.750000
280,93.750000
281,93.750000
282,93.750000
283,93.750000
284,93.750000
285,93.750000
286,93.750000
287,93.750000
288,93.750000
289,97.656250
290,97.656250
291,97.656250
292,97.656250
293,97.656250
294,97.656250
295,97.656250
296,97.656250
297,97.656250
298,97.656250
299,97.656250
300,97.656250
301,97.656250
302,97.656250
303,97.656250
304,97.656250
305,97.656250
306,97.656250
307,97.656250
308,97.656250
309,97.656250
310,97.656250
311,97.656250
312,97.656250
313,97.656250
314,97.656250
315,97.656250
316,97.656250
317,97.656250
318,97.656250
319,97.656250
320,97.656250
321,97.656250
322,97.656250
323,97.656250
324,97.656250
325,97.656250
326,97.656250
327,97.656250
328,97.656250
329,97.656250
330,97.656250
331,97.656250
332,97.656250
333,97.656250
334,97.656250
335,97.656250
336,97.656250
337,97.656250
338,97.656250
339,101.562500
340,97.656250
341,97.656250
342,97.656250
343,97.656250
344,97.656250
345,97.656250
346,97.656250
347,97.656250
348,97.656250
349,97.656250
350,97.656250
351,97.656250
352,97.656250
353,97.656250
354,97.656250
355,97.656250
356,97.656250
357,97.656250
358,97.656250
359,97.656250
360,97.656250
361,97.656250
362,97.656250
363,97.656250
364,97.656250
365,93.750000
366,97.656250
367,97.656250
368,93.750000
369,93.750000
370,93.750000
371,93.750000
372,93.750000
373,93.750000
374,93.750000
375,93.750000
376,93.750000
377,93.750000
378,93.750000
379,93.750000
380,93.750000
381,93.750000
382,93.750000
383,93.750000
384,93.750000
385,93.750000
386,93.750000
387,89.843750
388,89.843750
389,89.843750
390,89.843750
391,89.843750
392,89.843750
393,89.843750
394,89.843750
395,89.843750
396,89.843750
397,89.843750
398,89.843750
399,89.843750
400,89.843750
401,89.843750
402,85.937500
403,89.843750
404,85.937500
405,85.937500
406,85.937500
407,85.937500
408,85.937500
409,85.937500
410,85.937500
411,85.937500
412,85.937500
413,85.937500
414,85.937500
415,85.937500
416,85.937500
417,82.031250
418,82.031250
419,82.031250
420,82.031250
421,82.031250
422,82.031250
423,82.031250
424,82.031250
425,82.031250
426,82.031250
427,82.031250
428,78.125000
429,78.125000
430,78.125000
431,78.125000
432,78.125000
433,78.125000
434,78.125000
435,78.125000
436,78.125000
437,74.218750
438,74.218750
439,74.218750
440,74.218750
441,74.218750
442,74.218750
443,74.218750
444,74.218750
445,74.218750
446,74.218750
447,70.312500
448,74.218750
449,70.312500
450,70.312500
451,70.312500
452,70.312500
453,70.312500
454,70.312500
455,66.406250
456,66.406250
457,66.406250
458,66.406250
459,66.406250
460,66.406250
461,66.406250
462,66.406250
463,66.406250
464,66.406250
465,62.500000
466,62.500000
467,62.500000
468,62.500000
469,62.500000
470,58.593750
471,62.500000
472,58.593750
473,58.593750
474,58.593750
475,58.593750
476,58.593750
477,58.593750
478,58.593750
479,54.687500
480,54.687500
481,54.687500
482,54.687500
483,54.687500
484,54.687500
485,54.687500
486,50.781250
487,50.781250
488,50.781250
489,50.781250
490,50.781250
491,50.781250
492,50.781250
493,46.875000
494,46.875000
495,46.875000
496,46.875000
497,46.875000
498,46.875000
499,46.875000
500,42.968750
501,42.968750
502,42.968750
503,42.968750
504,42.968750
505,39.062500
506,39.062500
507,39.062500
508,39.062500
509,39.062500
510,39.062500
511,39.062500
512,35.156250
513,35.156250
514,35.156250
515,35.156250
516,35.156250
517,35.156250
518,31.250000
519,31.250000
520,31.250000
521,31.250000
522,31.250000
523,31.250000
524,27.343750
525,27.343750
526,27.343750
527,27.343750
528,27.343750
529,27.343750
530,27.343750
531,23.437500
532,23.437500
533,23.437500
534,23.437500
535,23.437500
536,23.437500
537,19.531250
538,19.531250
539,19.531250
540,19.531250
541,19.531250
542,15.625000
543,15.625000
544,15.625000
545,15.625000
546,15.625000
547,15.625000
548,11.718750
549,11.718750
550,11.718750
551,11.718750
552,11.718750
553,7.812500
554,7.812500
555,7.812500
556,7.812500
557,7.812500
558,7.812500
559,7.812500
560,3.906250
561,3.906250
562,3.906250
563,3.906250
564,3.906250
565,0.000000
566,0.000000
567,0.000000
568,0.000000
569,0.000000
570,-3.906250
571,-3.906250
572,-3.906250
573,-3.906250
574,-3.906250
575,-3.906250
576,-7.812500
577,-7.812500
578,-7.812500
579,-7.812500
580,-7.812500
581,-11.718750
582,-11.718750
583,-11.718750
584,-11.718750
585,-11.718750
586,-11.718750
587,-15.625000
588,-15.625000
589,-15.625000
590,-15.625000
591,-19.531250
592,-19.531250
593,-19.531250
594,-19.531250
595,-19.531250
596,-19.531250
597,-19.531250
598,-23.437500
599,-23.437500
600,-23.437500
601,-23.437500
602,-27.343750
603,-27.343750
604,-27.343750
605,-27.343750
606,-27.343750
607,-27.343750
608,-31.250000
609,-31.250000
610,-31.250000
611,-31.250000
612,-31.250000
613,-35.156250
614,-35.156250
615,-35.156250
616,-35.156250
617,-35.156250
618,-39.062500
619,-39.062500
620,-39.062500
621,-39.062500
622,-39.062500
623,-39.062500
624,-42.968750
625,-42.968750
626,-42.968750
627,-42.968750
628,-46.875000
629,-46.875000
630,-46.875000
631,-46.875000
632,-46.875000
633,-46.875000
634,-46.875000
635,-50.781250
636,-50.781250
637,-50.781250
638,-50.781250
639,-50.781250
640,-54.687500
641,-54.687500
642,-54.687500
643,-54.687500
644,-54.687500
645,-58.593750
646,-58.593750
647,-58.593750
648,-58.593750
649,-58.593750
650,-58.593750
651,-62.500000
652,-62.500000
653,-62.500000
654,-62.500000
655,-62.500000
656,-62.500000
657,-66.406250
658,-66.406250
659,-66.406250
660,-66.406250
661,-70.312500
662,-70.312500
663,-70.312500
664,-70.312500
665,-70.312500
666,-70.312500
667,-70.312500
668,-74.218750
669,-74.218750
670,-74.218750
671,-74.218750
672,-74.218750
673,-74.218750
674,-78.125000
675,-78.125000
676,-78.125000
677,-78.125000
678,-78.125000
679,-78.125000
680,-78.125000
681,-82.031250
682,-82.031250
683,-82.031250
684,-82.031250
685,-82.031250
686,-82.031250
687,-82.031250
688,-85.937500
689,-85.937500
690,-85.937500
691,-85.937500
692,-85.937500
693,-85.937500
694,-85.937500
695,-89.843750
696,-89.843750
697,-89.843750
698,-89.843750
699,-89.843750
700,-89.843750
701,-93.750000
702,-93.750000
703,-93.750000
704,-93.750000
705,-93.750000
706,-93.750000
707,-93.750000
708,-93.750000
709,-93.750000
710,-97.656250
711,-97.656250
712,-97.656250
713,-97.656250
714,-97.656250
715,-97.656250
716,-101.562500
717,-101.562500
718,-101.562500
719,-101.562500
720,-101.562500
721,-101.562500
722,-101.562500
723,-101.562500
724,-105.468750
725,-105.468750
726,-105.468750
727,-105.468750
728,-105.468750
729,-105.468750
730,-105.468750
731,-105.468750
732,-105.468750
733,-105.468750
734,-109.375000
735,-109.375000
736,-109.375000
737,-109.375000
738,-109.375000
739,-109.375000
740,-109.375000
741,-109.375000
742,-109.375000
743,-113.281250
744,-109.375000
745,-113.281250
746,-113.281250
747,-113.281250
748,-113.281250
749,-113.281250
750,-113.281250
751,-113.281250
752,-113.281250
753,-117.187500
754,-117.187500
755,-117.187500
756,-117.187500
757,-117.187500
758,-117.187500
759,-117.187500
760,-117.187500
761,-117.187500
762,-117.187500
763,-117.187500
764,-117.187500
765,-121.093750
766,-121.093750
767,-121.093750
768,-121.093750
769,-121.093750
770,-121.093750
771,-121.093750
772,-121.093750
773,-121.093750
774,-121.093750
775,-121.093750
776,-121.093750
777,-121.093750
778,-121.093750
779,-125.000000
780,-121.093750
781,-125.000000
782,-125.000000
783,-125.000000
784,-125.000000
785,-125.000000
786,-125.000000
787,-125.000000
788,-125.000000
789,-125.000000
790,-125.000000
791,-125.000000
792,-125.000000
793,-125.000000
794,-125.000000
795,-125.000000
796,-125.000000
797,-125.000000
798,-125.000000
799,-128.906250
800,-125.000000
801,-125.000000
802,-125.000000
803,-125.000000
804,-125.000000
805,-128.906250
806,-128.906250
807,-128.906250
808,-125.000000
809,-128.906250
810,-128.906250
811,-128.906250
812,-128.906250
813,-128.906250
814,-128.906250
815,-128.906250
816,-128.906250
817,-128.906250
818,-128.906250
819,-128.906250
820,-128.906250
821,-128.906250
822,-128.906250
823,-128.906250
824,-128.906250
825,-125.000000
826,-125.000000
827,-128.906250
828,-128.906250
829,-125.000000
830,-125.000000
831,-125.000000
832,-125.000000
833,-128.906250
834,-128.906250
835,-128.906250
836,-128.906250
837,-125.000000
838,-125.000000
839,-125.000000
840,-125.000000
841,-128.906250
842,-128.906250
843,-125.000000
844,-125.000000
845,-125.000000
846,-125.000000
847,-125.000000
848,-125.000000
849,-125.000000
850,-125.000000
851,-125.000000
852,-125.000000
853,-125.000000
854,-125.000000
855,-125.000000
856,-125.000000
857,-125.000000
858,-125.000000
859,-125.000000
860,-125.000000
861,-125.000000
862,-125.000000
863,-121.093750
864,-125.000000
865,-121.093750
866,-121.093750
867,-121.093750
868,-121.093750
869,-121.093750
870,-121.093750
871,-121.093750
872,-121.093750
873,-121.093750
874,-121.093750
875,-121.093750
876,-121.093750
877,-121.093750
878,-121.093750
879,-121.093750
880,-121.093750
881,-117.187500
882,-117.187500
883,-117.187500
884,-117.187500
885,-117.187500
886,-117.187500
887,-117.187500
888,-117.187500
889,-117.187500
890,-117.187500
891,-117.187500
892,-117.187500
893,-113.281250
894,-113.281250
895,-113.281250
896,-113.281250
897,-113.281250
898,-113.281250
899,-113.281250
900,-113.281250
901,-113.281250
902,-113.281250
903,-109.375000
904,-109.375000
905,-109.375000
906,-109.375000
907,-109.375000
908,-109.375000
909,-109.375000
910,-109.375000
911,-105.468750
912,-105.468750
913,-105.468750
914,-105.468750
915,-105.468750
916,-105.468750
917,-105.468750
918,-105.468750
919,-105.468750
920,-105.468750
921,-101.562500
922,-101.562500
923,-101.562500
924,-101.562500
925,-101.562500
926,-101.562500
927,-101.562500
928,-101.562500
929,-97.656250
930,-97.656250
931,-97.656250
932,-97.656250
933,-97.656250
934,-97.656250
935,-97.656250
936,-97.656250
937,-93.750000
938,-93.750000
939,-93.750000
940,-93.750000
941,-93.750000
942,-93.750000
943,-89.843750
944,-89.843750
945,-89.843750
946,-89.843750
947,-89.843750
948,-89.843750
949,-89.843750
950,-89.843750
951,-85.937500
952,-85.937500
953,-85.937500
954,-85.937500
955,-85.937500
956,-85.937500
957,-82.031250
958,-82.031250
959,-82.031250
960,-82.031250
961,-82.031250
962,-82.031250
963,-78.125000
964,-78.125000
965,-78.125000
966,-78.125000
967,-78.125000
968,-78.125000
969,-78.125000
970,-74.218750
971,-74.218750
972,-74.218750
973,-74.218750
974,-74.218750
975,-74.218750
976,-70.312500
977,-70.312500
978,-70.312500
979,-70.312500
980,-70.312500
981,-66.406250
982,-66.406250
983,-66.406250
984,-66.406250
985,-66.406250
986,-66.406250
987,-66.406250
988,-62.500000
989,-62.500000
990,-62.500000
991,-62.500000
992,-62.500000
993,-58.593750
994,-58.593750
995,-58.593750
996,-58.593750
997,-58.593750
998,-58.593750
999,-54.687500
1000,-54.687500
1001,-54.687500
1002,-54.687500
1003,-50.781250
1004,-50.781250
1005,-50.781250
1006,-50.781250
1007,-50.781250
1008,-50.781250
1009,-50.781250
1010,-50.781250
1011,-50.781250
1012,-46.875000
1013,-46.875000
1014,-46.875000
1015,-46.875000
1016,-42.968750
1017,-42.968750
1018,-42.968750
1019,-42.968750
1020,-42.968750
1021,-39.062500
1022,-39.062500
1023,-39.062500
1024,-39.062500
1025,-39.062500
1026,-39.062500
1027,-35.156250
1028,-35.156250
1029,-35.156250
1030,-35.156250
1031,-35.156250
1032,-35.156250
1033,-31.250000
1034,-31.250000
1035,-31.250000
1036,-31.250000
1037,-31.250000
1038,-27.343750
1039,-27.343750
1040,-27.343750
1041,-27.343750
1042,-27.343750
1043,-27.343750
1044,-23.437500
1045,-23.437500
1046,-23.437500
1047,-23.437500
1048,-23.437500
1049,-19.531250
1050,-19.531250
1051,-19.531250
1052,-19.531250
1053,-15.625000
1054,-15.625000
1055,-15.625000
1056,-15.625000
1057,-15.625000
1058,-11.718750
1059,-11.718750
1060,-11.718750
1061,-11.718750
1062,-11.718750
1063,-7.812500
1064,-11.718750
1065,-7.812500
1066,-7.812500
1067,-7.812500
1068,-7.812500
1069,-7.812500
1070,-3.906250
1071,-3.906250
1072,-3.906250
1073,-3.906250
1074,-3.906250
1075,0.000000
1076,0.000000
1077,0.000000
1078,0.000000
1079,0.000000
1080,0.000000
1081,3.906250
1082,3.906250
1083,3.906250
1084,3.906250
1085,7.812500
1086,7.812500
1087,7.812500
1088,7.812500
1089,7.812500
1090,7.812500
1091,11.718750
1092,11.718750
1093,11.718750
1094,11.718750
1095,11.718750
1096,11.718750
1097,15.625000
1098,15.625000
1099,15.625000
1100,15.625000
1101,15.625000
1102,15.625000
1103,19.531250
1104,19.531250
1105,19.531250
1106,19.531250
1107,19.531250
1108,19.531250
1109,23.437500
1110,23.437500
1111,23.437500
1112,23.437500
1113,23.437500
1114,23.437500
1115,27.343750
1116,27.343750
1117,27.343750
1118,27.343750
1119,27.343750
1120,31.250000
1121,31.250000
1122,31.250000
1123,31.250000
1124,31.250000
1125,31.250000
1126,31.250000
1127,35.156250
1128,35.156250
1129,35.156250
1130,35.156250
1131,35.156250
1132,39.062500
1133,39.062500
1134,39.062500
1135,39.062500
1136,39.062500
1137,39.062500
1138,39.062500
1139,42.968750
1140,42.968750
1141,42.968750
1142,42.968750
1143,42.968750
1144,42.968750
1145,42.968750
1146,46.875000
1147,46.875000
1148,46.875000
1149,46.875000
1150,46.875000
1151,46.875000
1152,46.875000
1153,50.781250
1154,50.781250
1155,50.781250
1156,50.781250
1157,50.781250
1158,50.781250
1159,50.781250
1160,54.687500
1161,54.687500
1162,54.687500
1163,54.687500
1164,54.687500
1165,54.687500
1166,54.687500
1167,54.687500
1168,58.593750
1169,58.593750
1170,58.593750
1171,58.593750
1172,58.593750
1173,58.593750
1174,58.593750
1175,62.500000
1176,62.500000
1177,62.500000
1178,62.500000
1179,62.500000
1180,62.500000
1181,62.500000
1182,62.500000
1183,66.406250
1184,66.406250
1185,66.406250
1186,66.406250
1187,66.406250
1188,66.406250
1189,70.312500
1190,70.312500
1191,70.312500
1192,70.312500
1193,70.312500
1194,70.312500
1195,70.312500
1196,70.312500
1197,70.312500
1198,70.312500
1199,70.312500
1200,74.218750
1201,74.218750
1202,74.218750
1203,74.218750
1204,74.218750
1205,74.218750
1206,74.218750
1207,78.125000
1208,78.125000
1209,78.125000
1210,78.125000
1211,78.125000
1212,78.125000
1213,78.125000
1214,78.125000
1215,78.125000
1216,78.125000
1217,82.031250
1218,82.031250
1219,82.031250
1220,82.031250
1221,82.031250
1222,82.031250
1223,82.031250
1224,82.031250
1225,82.031250
1226,82.031250
1227,82.031250
1228,85.937500
1229,85.937500
1230,85.937500
1231,85.937500
1232,85.937500
1233,85.937500
1234,85.937500
1235,85.937500
1236,85.937500
1237,85.937500
1238,85.937500
1239,85.937500
1240,85.937500
1241,89.843750
1242,89.843750
1243,89.843750
1244,89.843750
1245,89.843750
1246,89.843750
1247,89.843750
1248,89.843750
1249,89.843750
1250,89.843750
1251,89.843750
1252,89.843750
1253,89.843750
1254,89.843750
1255,89.843750
1256,89.843750
1257,93.750000
1258,93.750000
