Channel              :,CH1
Frequency            :,1.010kHz
Period               :,0.990ms
PK-PK                :,351.6mV
Probe attenuation    :,1X
Voltage per ADC value:,0.244141mV
Time interval        :,1.00000us

index,CH1_Voltage(mV)
1,-82.031250
2,-82.031250
3,-82.031250
4,-78.125000
5,-78.125000
6,-78.125000
7,-78.125000
8,-74.218750
9,-74.218750
10,-74.218750
11,-74.218750
12,-70.312500
13,-70.312500
14,-70.312500
15,-66.406250
16,-66.406250
17,-66.406250
18,-66.406250
19,-62.500000
20,-62.500000
21,-62.500000
22,-58.593750
23,-58.593750
24,-58.593750
25,-54.687500
26,-54.687500
27,-54.687500
28,-54.687500
29,-50.781250
30,-50.781250
31,-50.781250
32,-46.875000
33,-46.875000
34,-46.875000
35,-46.875000
36,-42.968750
37,-42.968750
38,-42.968750
39,-39.062500
40,-39.062500
41,-39.062500
42,-35.156250
43,-35.156250
44,-35.156250
45,-35.156250
46,-31.250000
47,-31.250000
48,-31.250000
49,-31.250000
50,-27.343750
51,-27.343750
52,-27.343750
53,-23.437500
54,-23.437500
55,-23.437500
56,-19.531250
57,-19.531250
58,-19.531250
59,-19.531250
60,-15.625000
61,-15.625000
62,-15.625000
63,-11.718750
64,-11.718750
65,-11.718750
66,-11.718750
67,-11.718750
68,-7.812500
69,-7.812500
70,-7.812500
71,-3.906250
72,-3.906250
73,-3.906250
74,0.000000
75,0.000000
76,0.000000
77,0.000000
78,3.906250
79,3.906250
80,3.906250
81,7.812500
82,7.812500
83,7.812500
84,7.812500
85,7.812500
86,11.718750
87,11.718750
88,15.625000
89,15.625000
90,15.625000
91,15.625000
92,19.531250
93,19.531250
94,19.531250
95,23.437500
96,23.437500
97,23.437500
98,23.437500
99,23.437500
100,27.343750
101,27.343750
102,27.343750
103,31.250000
104,31.250000
105,31.250000
106,31.250000
107,31.250000
108,35.156250
109,35.156250
110,35.156250
111,39.062500
112,39.062500
113,39.062500
114,42.968750
115,42.968750
116,42.968750
117,42.968750
118,42.968750
119,46.875000
120,46.875000
121,46.875000
122,46.875000
123,50.781250
124,50.781250
125,50.781250
126,50.781250
127,54.687500
128,54.687500
129,54.687500
130,54.687500
131,58.593750
132,58.593750
133,58.593750
134,58.593750
135,58.593750
136,62.500000
137,62.500000
138,62.500000
139,62.500000
140,66.406250
141,70.312500
142,66.406250
143,66.406250
144,70.312500
145,70.312500
146,70.312500
147,70.312500
148,74.218750
149,74.218750
150,74.218750
151,74.218750
152,74.218750
153,78.125000
154,78.125000
155,78.125000
156,78.125000
157,82.031250
158,82.031250
159,82.031250
160,82.031250
161,82.031250
162,85.937500
163,85.937500
164,85.937500
165,85.937500
166,89.843750
167,89.843750
168,89.843750
169,89.843750
170,89.843750
171,89.843750
172,93.750000
173,93.750000
174,93.750000
175,93.750000
176,93.750000
177,97.656250
178,97.656250
179,97.656250
180,97.656250
181,97.656250
182,101.562500
183,101.562500
184,101.562500
185,101.562500
186,101.562500
187,101.562500
188,105.468750
189,105.468750
190,105.468750
191,105.468750
192,105.468750
193,105.468750
194,109.375000
195,109.375000
196,109.375000
197,109.375000
198,109.375000
199,109.375000
200,109.375000
201,113.281250
202,113.281250
203,113.281250
204,113.281250
205,113.281250
206,113.281250
207,117.187500
208,117.187500
209,117.187500
210,117.187500
211,117.187500
212,117.187500
213,117.187500
214,121.093750
215,121.093750
216,121.093750
217,121.093750
218,121.093750
219,121.093750
220,121.093750
221,125.000000
222,125.000000
223,125.000000
224,125.000000
225,125.000000
226,125.000000
227,125.000000
228,125.000000
229,128.906250
230,128.906250
231,128.906250
232,128.906250
233,128.906250
234,128.906250
235,128.906250
236,128.906250
237,128.906250
238,132.812500
239,132.812500
240,132.812500
241,132.812500
242,132.812500
243,132.812500
244,132.812500
245,132.812500
246,132.812500
247,132.812500
248,136.718750
249,132.812500
250,136.718750
251,136.718750
252,136.718750
253,136.718750
254,136.718750
255,136.718750
256,136.718750
257,136.718750
258,136.718750
259,136.718750
260,140.625000
261,136.718750
262,140.625000
263,140.625000
264,140.625000
265,140.625000
266,140.625000
267,140.625000
268,140.625000
269,140.625000
270,140.625000
271,140.625000
272,140.625000
273,140.625000
274,144.531250
275,144.531250
276,144.531250
277,144.531250
278,144.531250
279,144.531250
280,144.531250
281,144.531250
282,144.531250
283,144.531250
284,144.531250
285,144.531250
286,144.531250
287,144.531250
288,144.531250
289,144.531250
290,144.531250
291,144.531250
292,144.531250
293,144.531250
294,144.531250
295,144.531250
296,148.437500
297,148.437500
298,148.437500
299,148.437500
300,148.437500
301,148.437500
302,148.437500
303,148.437500
304,148.437500
305,148.437500
306,148.437500
307,148.437500
308,148.437500
309,148.437500
310,148.437500
311,148.437500
312,148.437500
313,148.437500
314,148.437500
315,148.437500
316,148.437500
317,148.437500
318,148.437500
319,148.437500
320,148.437500
321,148.437500
322,148.437500
323,148.437500
324,148.437500
325,148.437500
326,148.437500
327,148.437500
328,148.437500
329,148.437500
330,148.437500
331,148.437500
332,148.437500
333,148.437500
334,148.437500
335,148.437500
336,148.437500
337,144.531250
338,148.437500
339,144.531250
340,148.437500
341,144.531250
342,144.531250
343,144.531250
344,148.437500
345,144.531250
346,144.531250
347,144.531250
348,144.531250
349,144.531250
350,144.531250
351,144.531250
352,144.531250
353,144.531250
354,144.531250
355,144.531250
356,144.531250
357,144.531250
358,144.531250
359,144.531250
360,144.531250
361,144.531250
362,144.531250
363,144.531250
364,144.531250
365,140.625000
366,140.625000
367,140.625000
368,140.625000
369,140.625000
370,140.625000
371,140.625000
372,140.625000
373,140.625000
374,140.625000
375,140.625000
376,140.625000
377,136.718750
378,136.718750
379,136.718750
380,136.718750
381,136.718750
382,136.718750
383,136.718750
384,136.718750
385,136.718750
386,136.718750
387,136.718750
388,136.718750
389,132.812500
390,136.718750
391,132.812500
392,132.812500
393,132.812500
394,132.812500
395,132.812500
396,132.812500
397,132.812500
398,132.812500
399,132.812500
400,132.812500
401,128.906250
402,128.906250
403,128.906250
404,128.906250
405,128.906250
406,128.906250
407,128.906250
408,128.906250
409,125.000000
410,128.906250
411,125.000000
412,125.000000
413,125.000000
414,125.000000
415,125.000000
416,125.000000
417,125.000000
418,125.000000
419,121.093750
420,121.093750
421,121.093750
422,121.093750
423,121.093750
424,121.093750
425,117.187500
426,117.187500
427,117.187500
428,117.187500
429,117.187500
430,117.187500
431,117.187500
432,117.187500
433,113.281250
434,113.281250
435,113.281250
436,113.281250
437,113.281250
438,113.281250
439,113.281250
440,109.375000
441,109.375000
442,109.375000
443,109.375000
444,109.375000
445,105.468750
446,105.468750
447,105.468750
448,105.468750
449,105.468750
450,105.468750
451,101.562500
452,101.562500
453,101.562500
454,101.562500
455,101.562500
456,101.562500
457,97.656250
458,97.656250
459,97.656250
460,97.656250
461,93.750000
462,93.750000
463,93.750000
464,93.750000
465,93.750000
466,93.750000
467,89.843750
468,89.843750
469,89.843750
470,89.843750
471,85.937500
472,85.937500
473,85.937500
474,85.937500
475,85.937500
476,85.937500
477,82.031250
478,82.031250
479,82.031250
480,82.031250
481,78.125000
482,78.125000
483,78.125000
484,78.125000
485,78.125000
486,74.218750
487,74.218750
488,74.218750
489,74.218750
490,70.312500
491,70.312500
492,70.312500
493,70.312500
494,70.312500
495,66.406250
496,66.406250
497,66.406250
498,66.406250
499,66.406250
500,62.500000
501,62.500000
502,62.500000
503,62.500000
504,58.593750
505,58.593750
506,58.593750
507,54.687500
508,54.687500
509,54.687500
510,54.687500
511,54.687500
512,50.781250
513,50.781250
514,46.875000
515,46.875000
516,46.875000
517,46.875000
518,46.875000
519,46.875000
520,42.968750
521,42.968750
522,42.968750
523,42.968750
524,39.062500
525,39.062500
526,39.062500
527,35.156250
528,35.156250
529,35.156250
530,35.156250
531,31.250000
532,31.250000
533,31.250000
534,31.250000
535,27.343750
536,27.343750
537,27.343750
538,27.343750
539,23.437500
540,23.437500
541,23.437500
542,19.531250
543,19.531250
544,19.531250
545,15.625000
546,15.625000
547,15.625000
548,15.625000
549,15.625000
550,11.718750
551,11.718750
552,11.718750
553,7.812500
554,7.812500
555,7.812500
556,3.906250
557,3.906250
558,3.906250
559,3.906250
560,0.000000
561,0.000000
562,0.000000
563,-3.906250
564,-3.906250
565,-3.906250
566,-3.906250
567,-7.812500
568,-7.812500
569,-7.812500
570,-11.718750
571,-11.718750
572,-11.718750
573,-11.718750
574,-11.718750
575,-15.625000
576,-15.625000
577,-15.625000
578,-19.531250
579,-19.531250
580,-19.531250
581,-23.437500
582,-23.437500
583,-23.437500
584,-27.343750
585,-27.343750
586,-27.343750
587,-27.343750
588,-27.343750
589,-31.250000
590,-31.250000
591,-35.156250
592,-35.156250
593,-35.156250
594,-35.156250
595,-39.062500
596,-39.062500
597,-39.062500
598,-42.968750
599,-42.968750
600,-42.968750
601,-46.875000
602,-46.875000
603,-46.875000
604,-46.875000
605,-50.781250
606,-50.781250
607,-50.781250
608,-54.687500
609,-54.687500
610,-54.687500
611,-54.687500
612,-58.593750
613,-58.593750
614,-58.593750
615,-62.500000
616,-62.500000
617,-62.500000
618,-62.500000
619,-66.406250
620,-66.406250
621,-66.406250
622,-70.312500
623,-70.312500
624,-70.312500
625,-74.218750
626,-74.218750
627,-74.218750
628,-78.125000
629,-78.125000
630,-78.125000
631,-78.125000
632,-78.125000
633,-82.031250
634,-82.031250
635,-82.031250
636,-85.937500
637,-85.937500
638,-85.937500
639,-89.843750
640,-89.843750
641,-89.843750
642,-89.843750
643,-89.843750
644,-93.750000
645,-93.750000
646,-93.750000
647,-97.656250
648,-97.656250
649,-97.656250
650,-97.656250
651,-101.562500
652,-101.562500
653,-101.562500
654,-105.468750
655,-105.468750
656,-105.468750
657,-105.468750
658,-109.375000
659,-109.375000
660,-109.375000
661,-109.375000
662,-109.375000
663,-113.281250
664,-113.281250
665,-113.281250
666,-117.187500
667,-117.187500
668,-117.187500
669,-117.187500
670,-121.093750
671,-121.093750
672,-121.093750
673,-121.093750
674,-125.000000
675,-125.000000
676,-125.000000
677,-125.000000
678,-125.000000
679,-128.906250
680,-128.906250
681,-128.906250
682,-128.906250
683,-132.812500
684,-132.812500
685,-132.812500
686,-132.812500
687,-136.718750
688,-136.718750
689,-136.718750
690,-136.718750
691,-136.718750
692,-140.625000
693,-140.625000
694,-140.625000
695,-140.625000
696,-144.531250
697,-144.531250
698,-144.531250
699,-144.531250
700,-144.531250
701,-148.437500
702,-148.437500
703,-148.437500
704,-148.437500
705,-148.437500
706,-152.343750
707,-152.343750
708,-152.343750
709,-152.343750
710,-156.250000
711,-156.250000
712,-156.250000
713,-156.250000
714,-156.250000
715,-156.250000
716,-160.156250
717,-160.156250
718,-160.156250
719,-160.156250
720,-160.156250
721,-164.062500
722,-164.062500
723,-164.062500
724,-164.062500
725,-164.062500
726,-164.062500
727,-167.968750
728,-167.968750
729,-167.968750
730,-167.968750
731,-167.968750
732,-171.875000
733,-171.875000
734,-171.875000
735,-171.875000
736,-171.875000
737,-171.875000
738,-171.875000
739,-175.781250
740,-175.781250
741,-175.781250
742,-175.781250
743,-175.781250
744,-175.781250
745,-175.781250
746,-179.687500
747,-179.687500
748,-179.687500
749,-179.687500
750,-179.687500
751,-179.687500
752,-179.687500
753,-179.687500
754,-183.593750
755,-183.593750
756,-183.593750
757,-183.593750
758,-183.593750
759,-183.593750
760,-183.593750
761,-183.593750
762,-183.593750
763,-187.500000
764,-187.500000
765,-187.500000
766,-187.500000
767,-187.500000
768,-187.500000
769,-187.500000
770,-187.500000
771,-187.500000
772,-187.500000
773,-187.500000
774,-187.500000
775,-187.500000
776,-191.406250
777,-191.406250
778,-191.406250
779,-191.406250
780,-191.406250
781,-191.406250
782,-191.406250
783,-191.406250
784,-191.406250
785,-191.406250
786,-191.406250
787,-195.312500
788,-195.312500
789,-195.312500
790,-195.312500
791,-195.312500
792,-195.312500
793,-195.312500
794,-195.312500
795,-195.312500
796,-195.312500
797,-195.312500
798,-195.312500
799,-195.312500
800,-195.312500
801,-195.312500
802,-195.312500
803,-195.312500
804,-195.312500
805,-195.312500
806,-195.312500
807,-195.312500
808,-195.312500
809,-195.312500
810,-195.312500
811,-195.312500
812,-195.312500
813,-195.312500
814,-195.312500
815,-195.312500
816,-195.312500
817,-195.312500
818,-195.312500
819,-195.312500
820,-195.312500
821,-195.312500
822,-195.312500
823,-195.312500
824,-195.312500
825,-195.312500
826,-195.312500
827,-195.312500
828,-195.312500
829,-195.312500
830,-195.312500
831,-195.312500
832,-195.312500
833,-195.312500
834,-195.312500
835,-191.406250
836,-191.406250
837,-191.406250
838,-191.406250
839,-191.406250
840,-191.406250
841,-191.406250
842,-191.406250
843,-191.406250
844,-191.406250
845,-191.406250
846,-191.406250
847,-191.406250
848,-191.406250
849,-191.406250
850,-191.406250
851,-191.406250
852,-191.406250
853,-191.406250
854,-187.500000
855,-187.500000
856,-187.500000
857,-187.500000
858,-187.500000
859,-187.500000
860,-187.500000
861,-187.500000
862,-187.500000
863,-187.500000
864,-187.500000
865,-183.593750
866,-183.593750
867,-183.593750
868,-183.593750
869,-183.593750
870,-183.593750
871,-183.593750
872,-183.593750
873,-179.687500
874,-179.687500
875,-179.687500
876,-179.687500
877,-179.687500
878,-179.687500
879,-179.687500
880,-179.687500
881,-179.687500
882,-175.781250
883,-175.781250
884,-175.781250
885,-175.781250
886,-175.781250
887,-175.781250
888,-175.781250
889,-171.875000
890,-171.875000
891,-171.875000
892,-171.875000
893,-171.875000
894,-167.968750
895,-167.968750
896,-167.968750
897,-167.968750
898,-167.968750
899,-167.968750
900,-167.968750
901,-164.062500
902,-167.968750
903,-164.062500
904,-164.062500
905,-164.062500
906,-160.156250
907,-160.156250
908,-160.156250
909,-160.156250
910,-160.156250
911,-160.156250
912,-156.250000
913,-156.250000
914,-156.250000
915,-156.250000
916,-156.250000
917,-152.343750
918,-152.343750
919,-152.343750
920,-152.343750
921,-148.437500
922,-148.437500
923,-148.437500
924,-148.437500
925,-148.437500
926,-148.437500
927,-144.531250
928,-144.531250
929,-144.531250
930,-144.531250
931,-140.625000
932,-140.625000
933,-140.625000
934,-140.625000
935,-140.625000
936,-136.718750
937,-136.718750
938,-136.718750
939,-136.718750
940,-132.812500
941,-132.812500
942,-132.812500
943,-132.812500
944,-132.812500
945,-128.906250
946,-128.906250
947,-128.906250
948,-128.906250
949,-125.000000
950,-125.000000
951,-125.000000
952,-125.000000
953,-121.093750
954,-121.093750
955,-121.093750
956,-117.187500
957,-117.187500
958,-117.187500
959,-117.187500
960,-113.281250
961,-113.281250
962,-113.281250
963,-113.281250
964,-109.375000
965,-109.375000
966,-109.375000
967,-109.375000
968,-105.468750
969,-105.468750
970,-105.468750
971,-105.468750
972,-101.562500
973,-101.562500
974,-101.562500
975,-101.562500
976,-97.656250
977,-97.656250
978,-97.656250
979,-97.656250
980,-97.656250
981,-93.750000
982,-93.750000
983,-93.750000
984,-89.843750
985,-89.843750
986,-89.843750
987,-89.843750
988,-85.937500
989,-85.937500
990,-82.031250
991,-82.031250
992,-82.031250
993,-82.031250
994,-78.125000
995,-78.125000
996,-78.125000
997,-78.125000
998,-74.218750
999,-74.218750
1000,-74.218750
1001,-74.218750
1002,-70.312500
1003,-70.312500
1004,-70.312500
1005,-66.406250
1006,-66.406250
1007,-66.406250
1008,-62.500000
1009,-62.500000
1010,-62.500000
1011,-62.500000
1012,-58.593750
1013,-58.593750
1014,-58.593750
1015,-58.593750
1016,-54.687500
1017,-54.687500
1018,-54.687500
1019,-50.781250
1020,-50.781250
1021,-50.781250
1022,-50.781250
1023,-46.875000
1024,-46.875000
1025,-46.875000
1026,-42.968750
1027,-42.968750
1028,-42.968750
1029,-42.968750
1030,-39.062500
1031,-39.062500
1032,-39.062500
1033,-35.156250
1034,-35.156250
1035,-35.156250
1036,-31.250000
1037,-31.250000
1038,-31.250000
1039,-31.250000
1040,-27.343750
1041,-27.343750
1042,-27.343750
1043,-23.437500
1044,-23.437500
1045,-23.437500
1046,-19.531250
1047,-19.531250
1048,-19.531250
1049,-19.531250
1050,-15.625000
1051,-15.625000
1052,-15.625000
1053,-15.625000
1054,-11.718750
1055,-11.718750
1056,-7.812500
1057,-7.812500
1058,-7.812500
1059,-7.812500
1060,-7.812500
1061,-3.906250
1062,-3.906250
1063,-3.906250
1064,0.000000
1065,0.000000
1066,0.000000
1067,3.906250
1068,3.906250
1069,3.906250
1070,3.906250
1071,7.812500
1072,7.812500
1073,7.812500
1074,11.718750
1075,11.718750
1076,11.718750
1077,11.718750
1078,15.625000
1079,15.625000
1080,15.625000
1081,15.625000
1082,19.531250
1083,19.531250
1084,19.531250
1085,19.531250
1086,23.437500
1087,23.437500
1088,23.437500
1089,27.343750
1090,27.343750
1091,27.343750
1092,27.343750
1093,31.250000
1094,31.250000
1095,31.250000
1096,31.250000
1097,35.156250
1098,35.156250
1099,35.156250
1100,39.062500
1101,39.062500
1102,39.062500
1103,39.062500
1104,42.968750
1105,42.968750
1106,42.968750
1107,42.968750
1108,46.875000
1109,46.875000
1110,46.875000
1111,46.875000
1112,50.781250
1113,50.781250
1114,50.781250
1115,50.781250
1116,54.687500
1117,54.687500
1118,54.687500
1119,54.687500
1120,58.593750
1121,58.593750
1122,58.593750
1123,58.593750
1124,58.593750
1125,62.500000
1126,62.500000
1127,62.500000
1128,66.406250
1129,66.406250
1130,66.406250
1131,66.406250
1132,66.406250
1133,66.406250
1134,70.312500
1135,70.312500
1136,70.312500
1137,74.218750
1138,74.218750
1139,74.218750
1140,74.218750
1141,74.218750
1142,78.125000
1143,78.125000
1144,78.125000
1145,78.125000
1146,78.125000
1147,82.031250
1148,82.031250
1149,82.031250
1150,82.031250
1151,85.937500
1152,85.937500
1153,85.937500
1154,85.937500
1155,85.937500
1156,89.843750
1157,89.843750
1158,89.843750
1159,89.843750
1160,89.843750
1161,89.843750
1162,93.750000
1163,93.750000
1164,93.750000
1165,93.750000
1166,93.750000
1167,97.656250
1168,97.656250
1169,97.656250
1170,97.656250
1171,97.656250
1172,101.562500
1173,101.562500
1174,101.562500
1175,101.562500
1176,101.562500
1177,101.562500
1178,105.468750
1179,105.468750
1180,105.468750
1181,105.468750
1182,105.468750
1183,109.375000
1184,109.375000
1185,109.375000
1186,109.375000
1187,109.375000
1188,113.281250
1189,109.375000
1190,113.281250
1191,113.281250
1192,113.281250
1193,113.281250
1194,113.281250
1195,113.281250
1196,117.187500
1197,117.187500
1198,117.187500
1199,117.187500
1200,117.187500
1201,117.187500
1202,117.187500
1203,121.093750
1204,121.093750
1205,121.093750
1206,121.093750
1207,121.093750
1208,121.093750
1209,125.000000
1210,125.000000
1211,125.000000
1212,125.000000
1213,125.000000
1214,125.000000
1215,125.000000
1216,128.906250
1217,128.906250
1218,128.906250
1219,128.906250
1220,128.906250
1221,128.906250
1222,128.906250
1223,128.906250
1224,128.906250
1225,128.906250
1226,132.812500
1227,132.812500
1228,132.812500
1229,132.812500
1230,132.812500
