Channel              :,CH1
Frequency            :,1.010kHz
Period               :,0.990ms
PK-PK                :,187.5mV
Probe attenuation    :,1X
Voltage per ADC value:,0.244141mV
Time interval        :,1.00000us

index,CH1_Voltage(mV)
1,-50.781250
2,-50.781250
3,-50.781250
4,-50.781250
5,-50.781250
6,-50.781250
7,-50.781250
8,-46.875000
9,-46.875000
10,-46.875000
11,-46.875000
12,-46.875000
13,-46.875000
14,-42.968750
15,-42.968750
16,-42.968750
17,-42.968750
18,-42.968750
19,-42.968750
20,-42.968750
21,-39.062500
22,-39.062500
23,-39.062500
24,-39.062500
25,-39.062500
26,-39.062500
27,-39.062500
28,-35.156250
29,-35.156250
30,-35.156250
31,-35.156250
32,-35.156250
33,-35.156250
34,-31.250000
35,-31.250000
36,-31.250000
37,-31.250000
38,-31.250000
39,-31.250000
40,-27.343750
41,-27.343750
42,-27.343750
43,-27.343750
44,-27.343750
45,-27.343750
46,-27.343750
47,-23.437500
48,-23.437500
49,-23.437500
50,-23.437500
51,-23.437500
52,-23.437500
53,-23.437500
54,-23.437500
55,-19.531250
56,-19.531250
57,-19.531250
58,-19.531250
59,-19.531250
60,-19.531250
61,-15.625000
62,-15.625000
63,-15.625000
64,-15.625000
65,-15.625000
66,-15.625000
67,-11.718750
68,-11.718750
69,-11.718750
70,-11.718750
71,-11.718750
72,-11.718750
73,-11.718750
74,-11.718750
75,-7.812500
76,-7.812500
77,-7.812500
78,-7.812500
79,-7.812500
80,-7.812500
81,-3.906250
82,-3.906250
83,-3.906250
84,-3.906250
85,-3.906250
86,-3.906250
87,-3.906250
88,-3.906250
89,0.000000
90,0.000000
91,0.000000
92,0.000000
93,0.000000
94,0.000000
95,3.906250
96,3.906250
97,3.906250
98,3.906250
99,3.906250
100,3.906250
101,3.906250
102,7.812500
103,7.812500
104,7.812500
105,7.812500
106,7.812500
107,7.812500
108,7.812500
109,11.718750
110,11.718750
111,11.718750
112,11.718750
113,11.718750
114,11.718750
115,11.718750
116,15.625000
117,15.625000
118,15.625000
119,15.625000
120,15.625000
121,15.625000
122,15.625000
123,15.625000
124,19.531250
125,19.531250
126,19.531250
127,23.437500
128,19.531250
129,19.531250
130,19.531250
131,23.437500
132,23.437500
133,23.437500
134,23.437500
135,23.437500
136,23.437500
137,23.437500
138,27.343750
139,27.343750
140,27.343750
141,27.343750
142,27.343750
143,27.343750
144,27.343750
145,31.250000
146,31.250000
147,31.250000
148,31.250000
149,31.250000
150,31.250000
151,31.250000
152,31.250000
153,31.250000
154,31.250000
155,35.156250
156,35.156250
157,35.156250
158,35.156250
159,35.156250
160,35.156250
161,35.156250
162,39.062500
163,39.062500
164,39.062500
165,39.062500
166,39.062500
167,39.062500
168,39.062500
169,42.968750
170,42.968750
171,42.968750
172,42.968750
173,42.968750
174,42.968750
175,42.968750
176,42.968750
177,42.968750
178,46.875000
179,46.875000
180,46.875000
181,46.875000
182,46.875000
183,46.875000
184,46.875000
185,46.875000
186,46.875000
187,46.875000
188,46.875000
189,50.781250
190,50.781250
191,50.781250
192,50.781250
193,50.781250
194,50.781250
195,50.781250
196,50.781250
197,54.687500
198,54.687500
199,54.687500
200,54.687500
201,54.687500
202,54.687500
203,54.687500
204,54.687500
205,54.687500
206,54.687500
207,54.687500
208,54.687500
209,58.593750
210,58.593750
211,58.593750
212,58.593750
213,58.593750
214,58.593750
215,58.593750
216,58.593750
217,58.593750
218,58.593750
219,58.593750
220,58.593750
221,62.500000
222,62.500000
223,62.500000
224,62.500000
225,62.500000
226,62.500000
227,62.500000
228,62.500000
229,62.500000
230,62.500000
231,66.406250
232,62.500000
233,66.406250
234,62.500000
235,66.406250
236,66.406250
237,66.406250
238,66.406250
239,66.406250
240,66.406250
241,66.406250
242,66.406250
243,66.406250
244,66.406250
245,70.312500
246,66.406250
247,66.406250
248,70.312500
249,66.406250
250,70.312500
251,70.312500
252,70.312500
253,70.312500
254,70.312500
255,70.312500
256,70.312500
257,70.312500
258,70.312500
259,70.312500
260,70.312500
261,70.312500
262,70.312500
263,70.312500
264,70.312500
265,70.312500
266,74.218750
267,74.218750
268,74.218750
269,74.218750
270,74.218750
271,74.218750
272,74.218750
273,74.218750
274,74.218750
275,74.218750
276,74.218750
277,74.218750
278,74.218750
279,74.218750
280,74.218750
281,74.218750
282,74.218750
283,74.218750
284,74.218750
285,74.218750
286,74.218750
287,74.218750
288,74.218750
289,78.125000
290,78.125000
291,78.125000
292,74.218750
293,78.125000
294,78.125000
295,78.125000
296,78.125000
297,78.125000
298,78.125000
299,78.125000
300,78.125000
301,78.125000
302,78.125000
303,78.125000
304,78.125000
305,78.125000
306,78.125000
307,78.125000
308,78.125000
309,78.125000
310,78.125000
311,78.125000
312,78.125000
313,78.125000
314,78.125000
315,78.125000
316,78.125000
317,78.125000
318,78.125000
319,78.125000
320,78.125000
321,78.125000
322,78.125000
323,78.125000
324,78.125000
325,78.125000
326,78.125000
327,78.125000
328,78.125000
329,78.125000
330,78.125000
331,78.125000
332,78.125000
333,78.125000
334,78.125000
335,78.125000
336,78.125000
337,78.125000
338,78.125000
339,78.125000
340,78.125000
341,78.125000
342,78.125000
343,78.125000
344,78.125000
345,78.125000
346,78.125000
347,78.125000
348,78.125000
349,78.125000
350,78.125000
351,78.125000
352,78.125000
353,78.125000
354,78.125000
355,78.125000
356,78.125000
357,78.125000
358,78.125000
359,78.125000
360,78.125000
361,78.125000
362,78.125000
363,74.218750
364,74.218750
365,74.218750
366,78.125000
367,74.218750
368,74.218750
369,74.218750
370,74.218750
371,74.218750
372,74.218750
373,74.218750
374,74.218750
375,74.218750
376,74.218750
377,74.218750
378,74.218750
379,74.218750
380,74.218750
381,74.218750
382,74.218750
383,74.218750
384,74.218750
385,74.218750
386,74.218750
387,74.218750
388,70.312500
389,70.312500
390,70.312500
391,70.312500
392,70.312500
393,70.312500
394,70.312500
395,70.312500
396,70.312500
397,70.312500
398,70.312500
399,70.312500
400,70.312500
401,70.312500
402,70.312500
403,70.312500
404,66.406250
405,70.312500
406,66.406250
407,66.406250
408,70.312500
409,66.406250
410,66.406250
411,66.406250
412,66.406250
413,66.406250
414,66.406250
415,66.406250
416,66.406250
417,66.406250
418,66.406250
419,66.406250
420,66.406250
421,66.406250
422,62.500000
423,62.500000
424,62.500000
425,62.500000
426,62.500000
427,62.500000
428,62.500000
429,62.500000
430,62.500000
431,62.500000
432,62.500000
433,58.593750
434,62.500000
435,62.500000
436,58.593750
437,58.593750
438,58.593750
439,58.593750
440,58.593750
441,58.593750
442,58.593750
443,58.593750
444,58.593750
445,58.593750
446,58.593750
447,54.687500
448,54.687500
449,54.687500
450,54.687500
451,54.687500
452,54.687500
453,54.687500
454,54.687500
455,54.687500
456,54.687500
457,50.781250
458,50.781250
459,50.781250
460,50.781250
461,50.781250
462,50.781250
463,50.781250
464,50.781250
465,46.875000
466,46.875000
467,46.875000
468,46.875000
469,46.875000
470,46.875000
471,46.875000
472,46.875000
473,46.875000
474,46.875000
475,42.968750
476,42.968750
477,42.968750
478,42.968750
479,42.968750
480,42.968750
481,42.968750
482,42.968750
483,39.062500
484,39.062500
485,39.062500
486,39.062500
487,39.062500
488,39.062500
489,39.062500
490,39.062500
491,35.156250
492,35.156250
493,35.156250
494,35.156250
495,35.156250
496,35.156250
497,35.156250
498,35.156250
499,35.156250
500,31.250000
501,31.250000
502,31.250000
503,31.250000
504,31.250000
505,31.250000
506,31.250000
507,31.250000
508,27.343750
509,27.343750
510,27.343750
511,27.343750
512,27.343750
513,27.343750
514,23.437500
515,23.437500
516,23.437500
517,23.437500
518,23.437500
519,23.437500
520,23.437500
521,23.437500
522,23.437500
523,23.437500
524,19.531250
525,19.531250
526,19.531250
527,19.531250
528,19.531250
529,15.625000
530,15.625000
531,15.625000
532,15.625000
533,15.625000
534,15.625000
535,15.625000
536,11.718750
537,11.718750
538,11.718750
539,11.718750
540,11.718750
541,11.718750
542,11.718750
543,7.812500
544,7.812500
545,7.812500
546,7.812500
547,7.812500
548,7.812500
549,7.812500
550,3.906250
551,3.906250
552,3.906250
553,3.906250
554,3.906250
555,3.906250
556,3.906250
557,3.906250
558,0.000000
559,0.000000
560,0.000000
561,0.000000
562,0.000000
563,0.000000
564,-3.906250
565,-3.906250
566,-3.906250
567,-3.906250
568,-3.906250
569,-3.906250
570,-3.906250
571,-7.812500
572,-7.812500
573,-7.812500
574,-7.812500
575,-7.812500
576,-7.812500
577,-7.812500
578,-11.718750
579,-11.718750
580,-11.718750
581,-11.718750
582,-11.718750
583,-11.718750
584,-15.625000
585,-15.625000
586,-15.625000
587,-15.625000
588,-15.625000
589,-15.625000
590,-19.531250
591,-19.531250
592,-19.531250
593,-19.531250
594,-19.531250
595,-19.531250
596,-19.531250
597,-23.437500
598,-23.437500
599,-23.437500
600,-23.437500
601,-23.437500
602,-23.437500
603,-23.437500
604,-27.343750
605,-27.343750
606,-27.343750
607,-27.343750
608,-27.343750
609,-27.343750
610,-27.343750
611,-27.343750
612,-31.250000
613,-31.250000
614,-31.250000
615,-31.250000
616,-35.156250
617,-31.250000
618,-35.156250
619,-35.156250
620,-35.156250
621,-35.156250
622,-35.156250
623,-35.156250
624,-39.062500
625,-39.062500
626,-39.062500
627,-39.062500
628,-39.062500
629,-39.062500
630,-42.968750
631,-42.968750
632,-42.968750
633,-42.968750
634,-42.968750
635,-42.968750
636,-42.968750
637,-42.968750
638,-46.875000
639,-46.875000
640,-46.875000
641,-46.875000
642,-46.875000
643,-46.875000
644,-50.781250
645,-50.781250
646,-50.781250
647,-50.781250
648,-50.781250
649,-50.781250
650,-50.781250
651,-50.781250
652,-54.687500
653,-54.687500
654,-54.687500
655,-54.687500
656,-54.687500
657,-54.687500
658,-58.593750
659,-58.593750
660,-58.593750
661,-58.593750
662,-58.593750
663,-58.593750
664,-58.593750
665,-62.500000
666,-62.500000
667,-62.500000
668,-62.500000
669,-62.500000
670,-62.500000
671,-62.500000
672,-62.500000
673,-62.500000
674,-66.406250
675,-66.406250
676,-66.406250
677,-66.406250
678,-66.406250
679,-66.406250
680,-66.406250
681,-66.406250
682,-70.312500
683,-70.312500
684,-70.312500
685,-70.312500
686,-70.312500
687,-70.312500
688,-70.312500
689,-70.312500
690,-74.218750
691,-74.218750
692,-74.218750
693,-74.218750
694,-74.218750
695,-74.218750
696,-78.125000
697,-74.218750
698,-74.218750
699,-74.218750
700,-78.125000
701,-78.125000
702,-78.125000
703,-78.125000
704,-78.125000
705,-78.125000
706,-78.125000
707,-78.125000
708,-78.125000
709,-82.031250
710,-82.031250
711,-82.031250
712,-82.031250
713,-82.031250
714,-82.031250
715,-82.031250
716,-85.937500
717,-82.031250
718,-82.031250
719,-85.937500
720,-85.937500
721,-85.937500
722,-85.937500
723,-85.937500
724,-85.937500
725,-85.937500
726,-85.937500
727,-89.843750
728,-89.843750
729,-89.843750
730,-89.843750
731,-89.843750
732,-89.843750
733,-89.843750
734,-89.843750
735,-89.843750
736,-89.843750
737,-89.843750
738,-93.750000
739,-93.750000
740,-89.843750
741,-93.750000
742,-93.750000
743,-93.750000
744,-93.750000
745,-93.750000
746,-93.750000
747,-93.750000
748,-97.656250
749,-93.750000
750,-93.750000
751,-97.656250
752,-97.656250
753,-97.656250
754,-97.656250
755,-97.656250
756,-97.656250
757,-97.656250
758,-97.656250
759,-97.656250
760,-97.656250
761,-97.656250
762,-97.656250
763,-97.656250
764,-97.656250
765,-97.656250
766,-101.562500
767,-97.656250
768,-97.656250
769,-101.562500
770,-101.562500
771,-101.562500
772,-101.562500
773,-101.562500
774,-101.562500
775,-101.562500
776,-101.562500
777,-101.562500
778,-101.562500
779,-101.562500
780,-101.562500
781,-101.562500
782,-101.562500
783,-101.562500
784,-101.562500
785,-101.562500
786,-105.468750
787,-105.468750
788,-101.562500
789,-101.562500
790,-105.468750
791,-105.468750
792,-105.468750
793,-101.562500
794,-101.562500
795,-105.468750
796,-105.468750
797,-105.468750
798,-105.468750
799,-105.468750
800,-105.468750
801,-105.468750
802,-105.468750
803,-105.468750
804,-105.468750
805,-105.468750
806,-105.468750
807,-105.468750
808,-105.468750
809,-105.468750
810,-105.468750
811,-105.468750
812,-105.468750
813,-105.468750
814,-105.468750
815,-105.468750
816,-105.468750
817,-105.468750
818,-105.468750
819,-105.468750
820,-105.468750
821,-105.468750
822,-105.468750
823,-105.468750
824,-105.468750
825,-105.468750
826,-105.468750
827,-105.468750
828,-105.468750
829,-105.468750
830,-105.468750
831,-105.468750
832,-105.468750
833,-105.468750
834,-105.468750
835,-105.468750
836,-105.468750
837,-105.468750
838,-105.468750
839,-105.468750
840,-105.468750
841,-105.468750
842,-101.562500
843,-101.562500
844,-105.468750
845,-105.468750
846,-105.468750
847,-105.468750
848,-105.468750
849,-105.468750
850,-105.468750
851,-101.562500
852,-101.562500
853,-101.562500
854,-101.562500
855,-101.562500
856,-101.562500
857,-101.562500
858,-101.562500
859,-101.562500
860,-101.562500
861,-101.562500
862,-101.562500
863,-101.562500
864,-101.562500
865,-101.562500
866,-101.562500
867,-101.562500
868,-101.562500
869,-101.562500
870,-97.656250
871,-101.562500
872,-101.562500
873,-97.656250
874,-97.656250
875,-101.562500
876,-97.656250
877,-97.656250
878,-97.656250
879,-97.656250
880,-97.656250
881,-97.656250
882,-97.656250
883,-97.656250
884,-97.656250
885,-97.656250
886,-97.656250
887,-97.656250
888,-93.750000
889,-97.656250
890,-97.656250
891,-97.656250
892,-97.656250
893,-93.750000
894,-93.750000
895,-93.750000
896,-93.750000
897,-93.750000
898,-93.750000
899,-93.750000
900,-93.750000
901,-93.750000
902,-93.750000
903,-89.843750
904,-89.843750
905,-89.843750
906,-89.843750
907,-89.843750
908,-89.843750
909,-89.843750
910,-89.843750
911,-89.843750
912,-89.843750
913,-85.937500
914,-85.937500
915,-85.937500
916,-85.937500
917,-85.937500
918,-85.937500
919,-85.937500
920,-85.937500
921,-85.937500
922,-85.937500
923,-85.937500
924,-82.031250
925,-82.031250
926,-82.031250
927,-82.031250
928,-82.031250
929,-82.031250
930,-82.031250
931,-82.031250
932,-82.031250
933,-82.031250
934,-82.031250
935,-78.125000
936,-78.125000
937,-78.125000
938,-78.125000
939,-78.125000
940,-78.125000
941,-78.125000
942,-74.218750
943,-74.218750
944,-74.218750
945,-74.218750
946,-74.218750
947,-74.218750
948,-74.218750
949,-74.218750
950,-70.312500
951,-74.218750
952,-70.312500
953,-70.312500
954,-70.312500
955,-70.312500
956,-70.312500
957,-66.406250
958,-70.312500
959,-66.406250
960,-66.406250
961,-66.406250
962,-66.406250
963,-66.406250
964,-66.406250
965,-66.406250
966,-66.406250
967,-62.500000
968,-62.500000
969,-62.500000
970,-62.500000
971,-62.500000
972,-62.500000
973,-62.500000
974,-58.593750
975,-58.593750
976,-58.593750
977,-58.593750
978,-58.593750
979,-58.593750
980,-58.593750
981,-54.687500
982,-54.687500
983,-54.687500
984,-54.687500
985,-54.687500
986,-54.687500
987,-54.687500
988,-54.687500
989,-50.781250
990,-50.781250
991,-50.781250
992,-50.781250
993,-50.781250
994,-50.781250
995,-50.781250
996,-46.875000
997,-46.875000
998,-46.875000
999,-46.875000
1000,-46.875000
1001,-46.875000
1002,-42.968750
1003,-46.875000
1004,-42.968750
1005,-42.968750
1006,-42.968750
1007,-42.968750
1008,-42.968750
1009,-42.968750
1010,-42.968750
1011,-39.062500
1012,-39.062500
1013,-39.062500
1014,-39.062500
1015,-39.062500
1016,-39.062500
1017,-39.062500
1018,-35.156250
1019,-35.156250
1020,-35.156250
1021,-35.156250
1022,-35.156250
1023,-35.156250
1024,-31.250000
1025,-31.250000
1026,-31.250000
1027,-31.250000
1028,-31.250000
1029,-31.250000
1030,-27.343750
1031,-27.343750
1032,-27.343750
1033,-27.343750
1034,-27.343750
1035,-27.343750
1036,-27.343750
1037,-27.343750
1038,-23.437500
1039,-23.437500
1040,-23.437500
1041,-23.437500
1042,-23.437500
1043,-23.437500
1044,-19.531250
1045,-19.531250
1046,-19.531250
1047,-19.531250
1048,-19.531250
1049,-19.531250
1050,-19.531250
1051,-15.625000
1052,-15.625000
1053,-15.625000
1054,-15.625000
1055,-15.625000
1056,-15.625000
1057,-11.718750
1058,-11.718750
1059,-11.718750
1060,-11.718750
1061,-11.718750
1062,-11.718750
1063,-11.718750
1064,-7.812500
1065,-7.812500
1066,-7.812500
1067,-7.812500
1068,-7.812500
1069,-7.812500
1070,-3.906250
1071,-3.906250
1072,-3.906250
1073,-3.906250
1074,-3.906250
1075,-3.906250
1076,0.000000
1077,0.000000
1078,0.000000
1079,0.000000
1080,0.000000
1081,0.000000
1082,0.000000
1083,0.000000
1084,3.906250
1085,3.906250
1086,3.906250
1087,3.906250
1088,3.906250
1089,3.906250
1090,7.812500
1091,7.812500
1092,7.812500
1093,7.812500
1094,7.812500
1095,7.812500
1096,7.812500
1097,7.812500
1098,11.718750
1099,11.718750
1100,11.718750
1101,11.718750
1102,11.718750
1103,11.718750
1104,11.718750
1105,15.625000
1106,15.625000
1107,15.625000
1108,15.625000
1109,15.625000
1110,15.625000
1111,19.531250
1112,19.531250
1113,19.531250
1114,19.531250
1115,19.531250
1116,19.531250
1117,19.531250
1118,19.531250
1119,23.437500
1120,23.437500
1121,23.437500
1122,23.437500
1123,23.437500
1124,23.437500
1125,23.437500
1126,27.343750
1127,27.343750
1128,27.343750
1129,27.343750
1130,27.343750
1131,27.343750
1132,27.343750
1133,27.343750
1134,27.343750
1135,31.250000
1136,31.250000
1137,31.250000
1138,31.250000
1139,31.250000
1140,31.250000
1141,31.250000
1142,31.250000
1143,35.156250
1144,35.156250
1145,35.156250
1146,35.156250
1147,35.156250
1148,35.156250
1149,39.062500
1150,39.062500
1151,39.062500
1152,39.062500
1153,39.062500
1154,39.062500
1155,39.062500
1156,39.062500
1157,39.062500
1158,39.062500
1159,39.062500
1160,39.062500
1161,42.968750
1162,42.968750
1163,42.968750
1164,42.968750
1165,42.968750
1166,42.968750
1167,46.875000
1168,46.875000
1169,46.875000
1170,46.875000
1171,46.875000
1172,46.875000
1173,46.875000
1174,46.875000
1175,46.875000
1176,46.875000
1177,46.875000
1178,50.781250
1179,50.781250
1180,50.781250
1181,50.781250
1182,50.781250
1183,50.781250
1184,50.781250
1185,50.781250
1186,50.781250
1187,50.781250
1188,54.687500
1189,54.687500
1190,54.687500
1191,54.687500
1192,54.687500
1193,54.687500
1194,54.687500
1195,54.687500
1196,54.687500
1197,54.687500
1198,58.593750
1199,58.593750
1200,58.593750
1201,58.593750
1202,58.593750
1203,58.593750
1204,58.593750
1205,58.593750
1206,58.593750
1207,58.593750
1208,58.593750
1209,62.500000
1210,62.500000
1211,62.500000
1212,62.500000
1213,62.500000
1214,62.500000
1215,62.500000
1216,62.500000
1217,62.500000
1218,62.500000
1219,62.500000
1220,66.406250
1221,66.406250
1222,66.406250
1223,66.406250
1224,66.406250
1225,66.406250
1226,66.406250
1227,66.406250
1228,66.406250
1229,66.406250
1230,66.406250
1231,66.406250
1232,66.406250
1233,66.406250
1234,70.312500
1235,70.312500
1236,70.312500
1237,70.312500
1238,70.312500
1239,70.312500
1240,70.312500
1241,70.312500
1242,70.312500
1243,70.312500
1244,70.312500
1245,70.312500
1246,70.312500
1247,70.312500
1248,70.312500
1249,70.312500
1250,70.312500
1251,70.312500
1252,74.218750
1253,74.218750
1254,70.312500
1255,74.218750
1256,74.218750
1257,74.218750
1258,74.218750
1259,74.218750
1260,74.218750
1261,74.218750
1262,74.218750
1263,74.218750
1264,74.218750
1265,74.218750
1266,74.218750
