Channel              :,CH1
Frequency            :,1.012kHz
Period               :,0.989ms
PK-PK                :,160.2mV
Probe attenuation    :,1X
Voltage per ADC value:,0.244141mV
Time interval        :,1.00000us

index,CH1_Voltage(mV)
1,-46.875000
2,-46.875000
3,-46.875000
4,-46.875000
5,-46.875000
6,-46.875000
7,-46.875000
8,-46.875000
9,-46.875000
10,-42.968750
11,-42.968750
12,-42.968750
13,-42.968750
14,-42.968750
15,-42.968750
16,-42.968750
17,-42.968750
18,-39.062500
19,-39.062500
20,-39.062500
21,-39.062500
22,-39.062500
23,-39.062500
24,-39.062500
25,-35.156250
26,-35.156250
27,-35.156250
28,-35.156250
29,-35.156250
30,-35.156250
31,-35.156250
32,-35.156250
33,-35.156250
34,-31.250000
35,-31.250000
36,-31.250000
37,-31.250000
38,-31.250000
39,-31.250000
40,-31.250000
41,-27.343750
42,-27.343750
43,-27.343750
44,-27.343750
45,-27.343750
46,-27.343750
47,-27.343750
48,-27.343750
49,-23.437500
50,-23.437500
51,-23.437500
52,-23.437500
53,-23.437500
54,-23.437500
55,-23.437500
56,-23.437500
57,-23.437500
58,-23.437500
59,-19.531250
60,-19.531250
61,-19.531250
62,-19.531250
63,-19.531250
64,-19.531250
65,-15.625000
66,-15.625000
67,-15.625000
68,-15.625000
69,-15.625000
70,-15.625000
71,-15.625000
72,-15.625000
73,-11.718750
74,-11.718750
75,-11.718750
76,-11.718750
77,-11.718750
78,-11.718750
79,-11.718750
80,-11.718750
81,-11.718750
82,-7.812500
83,-7.812500
84,-7.812500
85,-7.812500
86,-7.812500
87,-7.812500
88,-7.812500
89,-3.906250
90,-3.906250
91,-3.906250
92,-3.906250
93,-3.906250
94,-3.906250
95,-3.906250
96,0.000000
97,0.000000
98,0.000000
99,0.000000
100,0.000000
101,0.000000
102,0.000000
103,0.000000
104,0.000000
105,3.906250
106,3.906250
107,3.906250
108,3.906250
109,3.906250
110,3.906250
111,3.906250
112,7.812500
113,3.906250
114,7.812500
115,7.812500
116,7.812500
117,7.812500
118,7.812500
119,7.812500
120,11.718750
121,11.718750
122,11.718750
123,11.718750
124,11.718750
125,11.718750
126,11.718750
127,11.718750
128,11.718750
129,11.718750
130,15.625000
131,15.625000
132,15.625000
133,15.625000
134,15.625000
135,15.625000
136,15.625000
137,19.531250
138,19.531250
139,19.531250
140,19.531250
141,19.531250
142,19.531250
143,19.531250
144,19.531250
145,23.437500
146,23.437500
147,23.437500
148,23.437500
149,23.437500
150,23.437500
151,23.437500
152,23.437500
153,23.437500
154,27.343750
155,27.343750
156,23.437500
157,27.343750
158,27.343750
159,27.343750
160,27.343750
161,27.343750
162,27.343750
163,27.343750
164,27.343750
165,31.250000
166,31.250000
167,31.250000
168,31.250000
169,31.250000
170,31.250000
171,31.250000
172,31.250000
173,31.250000
174,35.156250
175,35.156250
176,35.156250
177,35.156250
178,35.156250
179,35.156250
180,35.156250
181,35.156250
182,35.156250
183,35.156250
184,35.156250
185,35.156250
186,35.156250
187,39.062500
188,39.062500
189,39.062500
190,39.062500
191,39.062500
192,39.062500
193,39.062500
194,39.062500
195,39.062500
196,39.062500
197,42.968750
198,42.968750
199,42.968750
200,42.968750
201,42.968750
202,42.968750
203,42.968750
204,42.968750
205,42.968750
206,46.875000
207,42.968750
208,42.968750
209,42.968750
210,42.968750
211,46.875000
212,46.875000
213,46.875000
214,46.875000
215,46.875000
216,46.875000
217,46.875000
218,46.875000
219,46.875000
220,46.875000
221,46.875000
222,46.875000
223,46.875000
224,50.781250
225,50.781250
226,50.781250
227,50.781250
228,50.781250
229,50.781250
230,50.781250
231,50.781250
232,50.781250
233,50.781250
234,50.781250
235,50.781250
236,50.781250
237,50.781250
238,54.687500
239,50.781250
240,50.781250
241,54.687500
242,54.687500
243,54.687500
244,54.687500
245,54.687500
246,54.687500
247,54.687500
248,54.687500
249,54.687500
250,54.687500
251,54.687500
252,54.687500
253,54.687500
254,54.687500
255,54.687500
256,58.593750
257,58.593750
258,54.687500
259,54.687500
260,58.593750
261,58.593750
262,58.593750
263,58.593750
264,58.593750
265,58.593750
266,58.593750
267,58.593750
268,58.593750
269,58.593750
270,58.593750
271,58.593750
272,58.593750
273,58.593750
274,58.593750
275,58.593750
276,58.593750
277,58.593750
278,58.593750
279,58.593750
280,58.593750
281,58.593750
282,62.500000
283,62.500000
284,58.593750
285,58.593750
286,58.593750
287,58.593750
288,62.500000
289,62.500000
290,62.500000
291,62.500000
292,62.500000
293,62.500000
294,62.500000
295,62.500000
296,62.500000
297,62.500000
298,62.500000
299,62.500000
300,62.500000
301,62.500000
302,62.500000
303,62.500000
304,62.500000
305,62.500000
306,62.500000
307,62.500000
308,62.500000
309,62.500000
310,62.500000
311,62.500000
312,62.500000
313,62.500000
314,62.500000
315,62.500000
316,62.500000
317,62.500000
318,62.500000
319,62.500000
320,62.500000
321,62.500000
322,62.500000
323,62.500000
324,62.500000
325,62.500000
326,62.500000
327,62.500000
328,62.500000
329,62.500000
330,62.500000
331,62.500000
332,62.500000
333,62.500000
334,62.500000
335,62.500000
336,62.500000
337,62.500000
338,62.500000
339,62.500000
340,62.500000
341,62.500000
342,62.500000
343,62.500000
344,62.500000
345,62.500000
346,62.500000
347,58.593750
348,58.593750
349,58.593750
350,62.500000
351,62.500000
352,62.500000
353,62.500000
354,62.500000
355,58.593750
356,58.593750
357,58.593750
358,58.593750
359,58.593750
360,58.593750
361,58.593750
362,58.593750
363,58.593750
364,58.593750
365,58.593750
366,58.593750
367,58.593750
368,58.593750
369,58.593750
370,58.593750
371,58.593750
372,58.593750
373,58.593750
374,58.593750
375,58.593750
376,58.593750
377,58.593750
378,58.593750
379,58.593750
380,58.593750
381,58.593750
382,58.593750
383,58.593750
384,54.687500
385,54.687500
386,58.593750
387,58.593750
388,54.687500
389,54.687500
390,54.687500
391,54.687500
392,54.687500
393,54.687500
394,54.687500
395,54.687500
396,54.687500
397,54.687500
398,54.687500
399,54.687500
400,54.687500
401,54.687500
402,54.687500
403,54.687500
404,54.687500
405,54.687500
406,50.781250
407,50.781250
408,50.781250
409,50.781250
410,50.781250
411,50.781250
412,50.781250
413,50.781250
414,50.781250
415,50.781250
416,50.781250
417,50.781250
418,46.875000
419,50.781250
420,46.875000
421,46.875000
422,46.875000
423,46.875000
424,46.875000
425,46.875000
426,46.875000
427,46.875000
428,46.875000
429,46.875000
430,46.875000
431,46.875000
432,46.875000
433,46.875000
434,42.968750
435,42.968750
436,42.968750
437,42.968750
438,42.968750
439,42.968750
440,42.968750
441,42.968750
442,42.968750
443,42.968750
444,42.968750
445,42.968750
446,39.062500
447,39.062500
448,39.062500
449,39.062500
450,39.062500
451,39.062500
452,39.062500
453,39.062500
454,39.062500
455,39.062500
456,39.062500
457,39.062500
458,35.156250
459,35.156250
460,35.156250
461,35.156250
462,35.156250
463,35.156250
464,35.156250
465,35.156250
466,35.156250
467,31.250000
468,31.250000
469,31.250000
470,31.250000
471,31.250000
472,31.250000
473,31.250000
474,31.250000
475,31.250000
476,31.250000
477,31.250000
478,27.343750
479,31.250000
480,27.343750
481,27.343750
482,27.343750
483,27.343750
484,27.343750
485,27.343750
486,27.343750
487,27.343750
488,23.437500
489,23.437500
490,23.437500
491,23.437500
492,23.437500
493,23.437500
494,23.437500
495,23.437500
496,19.531250
497,23.437500
498,23.437500
499,19.531250
500,19.531250
501,19.531250
502,19.531250
503,19.531250
504,19.531250
505,19.531250
506,19.531250
507,19.531250
508,19.531250
509,15.625000
510,15.625000
511,15.625000
512,15.625000
513,15.625000
514,15.625000
515,15.625000
516,15.625000
517,11.718750
518,15.625000
519,11.718750
520,11.718750
521,11.718750
522,11.718750
523,11.718750
524,11.718750
525,11.718750
526,11.718750
527,7.812500
528,7.812500
529,7.812500
530,7.812500
531,7.812500
532,7.812500
533,7.812500
534,3.906250
535,3.906250
536,3.906250
537,3.906250
538,3.906250
539,3.906250
540,3.906250
541,3.906250
542,0.000000
543,0.000000
544,0.000000
545,0.000000
546,0.000000
547,0.000000
548,0.000000
549,0.000000
550,0.000000
551,-3.906250
552,-3.906250
553,-3.906250
554,-3.906250
555,-3.906250
556,-3.906250
557,-3.906250
558,-3.906250
559,-7.812500
560,-7.812500
561,-7.812500
562,-7.812500
563,-7.812500
564,-7.812500
565,-7.812500
566,-11.718750
567,-11.718750
568,-11.718750
569,-11.718750
570,-11.718750
571,-11.718750
572,-11.718750
573,-11.718750
574,-15.625000
575,-15.625000
576,-15.625000
577,-15.625000
578,-15.625000
579,-15.625000
580,-15.625000
581,-15.625000
582,-19.531250
583,-19.531250
584,-19.531250
585,-19.531250
586,-19.531250
587,-19.531250
588,-19.531250
589,-23.437500
590,-19.531250
591,-23.437500
592,-23.437500
593,-23.437500
594,-23.437500
595,-23.437500
596,-23.437500
597,-27.343750
598,-23.437500
599,-27.343750
600,-27.343750
601,-27.343750
602,-27.343750
603,-27.343750
604,-27.343750
605,-27.343750
606,-31.250000
607,-31.250000
608,-31.250000
609,-31.250000
610,-31.250000
611,-31.250000
612,-31.250000
613,-31.250000
614,-35.156250
615,-35.156250
616,-35.156250
617,-35.156250
618,-35.156250
619,-35.156250
620,-35.156250
621,-35.156250
622,-39.062500
623,-39.062500
624,-39.062500
625,-39.062500
626,-39.062500
627,-39.062500
628,-39.062500
629,-39.062500
630,-42.968750
631,-42.968750
632,-42.968750
633,-42.968750
634,-42.968750
635,-42.968750
636,-42.968750
637,-42.968750
638,-42.968750
639,-42.968750
640,-46.875000
641,-46.875000
642,-46.875000
643,-46.875000
644,-46.875000
645,-46.875000
646,-46.875000
647,-46.875000
648,-50.781250
649,-50.781250
650,-50.781250
651,-50.781250
652,-50.781250
653,-50.781250
654,-50.781250
655,-50.781250
656,-54.687500
657,-54.687500
658,-54.687500
659,-54.687500
660,-54.687500
661,-54.687500
662,-54.687500
663,-54.687500
664,-54.687500
665,-54.687500
666,-58.593750
667,-58.593750
668,-58.593750
669,-58.593750
670,-58.593750
671,-58.593750
672,-58.593750
673,-58.593750
674,-58.593750
675,-62.500000
676,-62.500000
677,-62.500000
678,-62.500000
679,-62.500000
680,-62.500000
681,-62.500000
682,-62.500000
683,-62.500000
684,-66.406250
685,-66.406250
686,-66.406250
687,-66.406250
688,-66.406250
689,-66.406250
690,-70.312500
691,-66.406250
692,-70.312500
693,-70.312500
694,-70.312500
695,-70.312500
696,-70.312500
697,-70.312500
698,-70.312500
699,-70.312500
700,-70.312500
701,-70.312500
702,-74.218750
703,-70.312500
704,-74.218750
705,-74.218750
706,-74.218750
707,-74.218750
708,-74.218750
709,-74.218750
710,-74.218750
711,-74.218750
712,-74.218750
713,-74.218750
714,-78.125000
715,-78.125000
716,-78.125000
717,-78.125000
718,-78.125000
719,-78.125000
720,-78.125000
721,-78.125000
722,-78.125000
723,-78.125000
724,-78.125000
725,-78.125000
726,-82.031250
727,-82.031250
728,-82.031250
729,-82.031250
730,-82.031250
731,-82.031250
732,-82.031250
733,-82.031250
734,-82.031250
735,-82.031250
736,-82.031250
737,-82.031250
738,-82.031250
739,-82.031250
740,-82.031250
741,-85.937500
742,-85.937500
743,-85.937500
744,-85.937500
745,-85.937500
746,-85.937500
747,-85.937500
748,-85.937500
749,-85.937500
750,-85.937500
751,-85.937500
752,-85.937500
753,-85.937500
754,-89.843750
755,-85.937500
756,-85.937500
757,-89.843750
758,-89.843750
759,-89.843750
760,-89.843750
761,-89.843750
762,-89.843750
763,-89.843750
764,-89.843750
765,-89.843750
766,-89.843750
767,-89.843750
768,-89.843750
769,-89.843750
770,-89.843750
771,-89.843750
772,-89.843750
773,-89.843750
774,-89.843750
775,-89.843750
776,-89.843750
777,-89.843750
778,-89.843750
779,-93.750000
780,-89.843750
781,-89.843750
782,-93.750000
783,-89.843750
784,-93.750000
785,-93.750000
786,-93.750000
787,-93.750000
788,-93.750000
789,-93.750000
790,-93.750000
791,-93.750000
792,-93.750000
793,-93.750000
794,-93.750000
795,-93.750000
796,-93.750000
797,-93.750000
798,-93.750000
799,-93.750000
800,-93.750000
801,-93.750000
802,-93.750000
803,-93.750000
804,-93.750000
805,-93.750000
806,-93.750000
807,-93.750000
808,-93.750000
809,-93.750000
810,-93.750000
811,-93.750000
812,-93.750000
813,-93.750000
814,-93.750000
815,-93.750000
816,-93.750000
817,-93.750000
818,-93.750000
819,-93.750000
820,-93.750000
821,-93.750000
822,-93.750000
823,-93.750000
824,-93.750000
825,-93.750000
826,-93.750000
827,-93.750000
828,-93.750000
829,-93.750000
830,-93.750000
831,-93.750000
832,-93.750000
833,-93.750000
834,-93.750000
835,-93.750000
836,-93.750000
837,-93.750000
838,-93.750000
839,-93.750000
840,-93.750000
841,-93.750000
842,-93.750000
843,-93.750000
844,-93.750000
845,-93.750000
846,-93.750000
847,-93.750000
848,-93.750000
849,-93.750000
850,-93.750000
851,-93.750000
852,-93.750000
853,-93.750000
854,-89.843750
855,-93.750000
856,-93.750000
857,-93.750000
858,-93.750000
859,-89.843750
860,-89.843750
861,-89.843750
862,-89.843750
863,-89.843750
864,-89.843750
865,-89.843750
866,-89.843750
867,-89.843750
868,-89.843750
869,-89.843750
870,-89.843750
871,-89.843750
872,-89.843750
873,-89.843750
874,-89.843750
875,-89.843750
876,-89.843750
877,-89.843750
878,-89.843750
879,-89.843750
880,-85.937500
881,-85.937500
882,-85.937500
883,-85.937500
884,-85.937500
885,-85.937500
886,-85.937500
887,-85.937500
888,-85.937500
889,-85.937500
890,-85.937500
891,-85.937500
892,-85.937500
893,-85.937500
894,-85.937500
895,-85.937500
896,-85.937500
897,-85.937500
898,-82.031250
899,-82.031250
900,-82.031250
901,-82.031250
902,-82.031250
903,-82.031250
904,-82.031250
905,-82.031250
906,-82.031250
907,-82.031250
908,-82.031250
909,-82.031250
910,-82.031250
911,-78.125000
912,-78.125000
913,-78.125000
914,-78.125000
915,-78.125000
916,-78.125000
917,-78.125000
918,-78.125000
919,-78.125000
920,-78.125000
921,-78.125000
922,-78.125000
923,-74.218750
924,-74.218750
925,-74.218750
926,-74.218750
927,-74.218750
928,-74.218750
929,-74.218750
930,-74.218750
931,-70.312500
932,-70.312500
933,-74.218750
934,-70.312500
935,-70.312500
936,-70.312500
937,-70.312500
938,-70.312500
939,-70.312500
940,-70.312500
941,-70.312500
942,-70.312500
943,-66.406250
944,-66.406250
945,-66.406250
946,-66.406250
947,-66.406250
948,-66.406250
949,-66.406250
950,-66.406250
951,-66.406250
952,-66.406250
953,-66.406250
954,-62.500000
955,-62.500000
956,-62.500000
957,-62.500000
958,-62.500000
959,-62.500000
960,-62.500000
961,-62.500000
962,-62.500000
963,-62.500000
964,-58.593750
965,-58.593750
966,-58.593750
967,-58.593750
968,-58.593750
969,-58.593750
970,-58.593750
971,-58.593750
972,-58.593750
973,-58.593750
974,-54.687500
975,-54.687500
976,-54.687500
977,-54.687500
978,-54.687500
979,-54.687500
980,-54.687500
981,-54.687500
982,-54.687500
983,-50.781250
984,-50.781250
985,-50.781250
986,-50.781250
987,-50.781250
988,-50.781250
989,-50.781250
990,-50.781250
991,-46.875000
992,-46.875000
993,-46.875000
994,-46.875000
995,-46.875000
996,-46.875000
997,-46.875000
998,-46.875000
999,-42.968750
1000,-42.968750
1001,-42.968750
1002,-42.968750
1003,-42.968750
1004,-42.968750
1005,-42.968750
1006,-39.062500
1007,-39.062500
1008,-39.062500
1009,-39.062500
1010,-39.062500
1011,-39.062500
1012,-39.062500
1013,-39.062500
1014,-39.062500
1015,-39.062500
1016,-35.156250
1017,-35.156250
1018,-35.156250
1019,-35.156250
1020,-35.156250
1021,-35.156250
1022,-31.250000
1023,-31.250000
1024,-31.250000
1025,-31.250000
1026,-31.250000
1027,-31.250000
1028,-31.250000
1029,-31.250000
1030,-27.343750
1031,-27.343750
1032,-27.343750
1033,-27.343750
1034,-27.343750
1035,-27.343750
1036,-27.343750
1037,-27.343750
1038,-23.437500
1039,-23.437500
1040,-23.437500
1041,-23.437500
1042,-23.437500
1043,-23.437500
1044,-23.437500
1045,-23.437500
1046,-19.531250
1047,-19.531250
1048,-19.531250
1049,-19.531250
1050,-19.531250
1051,-19.531250
1052,-19.531250
1053,-19.531250
1054,-15.625000
1055,-15.625000
1056,-15.625000
1057,-15.625000
1058,-15.625000
1059,-15.625000
1060,-15.625000
1061,-15.625000
1062,-11.718750
1063,-15.625000
1064,-11.718750
1065,-11.718750
1066,-11.718750
1067,-11.718750
1068,-11.718750
1069,-11.718750
1070,-11.718750
1071,-7.812500
1072,-7.812500
1073,-7.812500
1074,-7.812500
1075,-7.812500
1076,-7.812500
1077,-7.812500
1078,-7.812500
1079,-3.906250
1080,-3.906250
1081,-3.906250
1082,-3.906250
1083,-3.906250
1084,-3.906250
1085,0.000000
1086,0.000000
1087,0.000000
1088,0.000000
1089,0.000000
1090,0.000000
1091,3.906250
1092,0.000000
1093,0.000000
1094,3.906250
1095,3.906250
1096,3.906250
1097,3.906250
1098,3.906250
1099,3.906250
1100,3.906250
1101,3.906250
1102,3.906250
1103,7.812500
1104,7.812500
1105,7.812500
1106,7.812500
1107,7.812500
1108,7.812500
1109,7.812500
1110,11.718750
1111,11.718750
1112,11.718750
1113,11.718750
1114,11.718750
1115,11.718750
1116,11.718750
1117,11.718750
1118,15.625000
1119,11.718750
1120,15.625000
1121,15.625000
1122,15.625000
1123,15.625000
1124,15.625000
1125,15.625000
1126,15.625000
1127,15.625000
1128,15.625000
1129,19.531250
1130,19.531250
1131,19.531250
1132,19.531250
1133,19.531250
1134,19.531250
1135,19.531250
1136,19.531250
1137,23.437500
1138,23.437500
1139,23.437500
1140,23.437500
1141,23.437500
1142,23.437500
1143,23.437500
1144,23.437500
1145,27.343750
1146,27.343750
1147,27.343750
1148,27.343750
1149,27.343750
1150,27.343750
1151,27.343750
1152,27.343750
1153,27.343750
1154,27.343750
1155,31.250000
1156,31.250000
1157,31.250000
1158,31.250000
1159,31.250000
1160,31.250000
1161,31.250000
1162,31.250000
1163,31.250000
1164,31.250000
1165,35.156250
1166,35.156250
1167,35.156250
1168,35.156250
1169,35.156250
1170,35.156250
1171,35.156250
1172,35.156250
1173,35.156250
1174,35.156250
1175,35.156250
1176,39.062500
1177,39.062500
1178,39.062500
1179,39.062500
1180,39.062500
1181,39.062500
1182,39.062500
1183,39.062500
1184,39.062500
1185,39.062500
1186,39.062500
1187,42.968750
1188,42.968750
1189,42.968750
1190,42.968750
1191,42.968750
1192,42.968750
1193,42.968750
1194,42.968750
1195,42.968750
1196,42.968750
1197,42.968750
1198,42.968750
1199,46.875000
1200,46.875000
1201,46.875000
1202,46.875000
1203,46.875000
1204,46.875000
1205,46.875000
1206,46.875000
1207,46.875000
1208,46.875000
1209,46.875000
1210,46.875000
1211,46.875000
1212,50.781250
1213,50.781250
1214,46.875000
1215,50.781250
1216,50.781250
1217,50.781250
1218,50.781250
1219,50.781250
1220,50.781250
1221,50.781250
1222,50.781250
1223,50.781250
1224,50.781250
1225,50.781250
1226,50.781250
1227,50.781250
1228,50.781250
1229,54.687500
1230,54.687500
1231,54.687500
1232,54.687500
1233,54.687500
1234,54.687500
1235,54.687500
1236,54.687500
1237,54.687500
1238,54.687500
1239,54.687500
1240,54.687500
1241,54.687500
1242,54.687500
1243,54.687500
1244,54.687500
1245,54.687500
1246,54.687500
1247,58.593750
1248,54.687500
1249,54.687500
1250,54.687500
1251,58.593750
1252,58.593750
1253,58.593750
1254,58.593750
1255,58.593750
1256,58.593750
1257,58.593750
1258,58.593750
1259,58.593750
1260,58.593750
1261,58.593750
1262,58.593750
1263,58.593750
1264,58.593750
1265,58.593750
1266,58.593750
1267,58.593750
1268,58.593750
1269,58.593750
1270,58.593750
1271,58.593750
