Channel              :,CH1
Frequency            :,1.012kHz
Period               :,0.989ms
PK-PK                :,273.4mV
Probe attenuation    :,1X
Voltage per ADC value:,0.244141mV
Time interval        :,1.00000us

index,CH1_Voltage(mV)
1,-70.312500
2,-70.312500
3,-70.312500
4,-70.312500
5,-70.312500
6,-70.312500
7,-70.312500
8,-66.406250
9,-66.406250
10,-66.406250
11,-62.500000
12,-62.500000
13,-62.500000
14,-62.500000
15,-62.500000
16,-58.593750
17,-58.593750
18,-58.593750
19,-58.593750
20,-54.687500
21,-54.687500
22,-54.687500
23,-54.687500
24,-54.687500
25,-50.781250
26,-50.781250
27,-50.781250
28,-50.781250
29,-46.875000
30,-46.875000
31,-46.875000
32,-46.875000
33,-46.875000
34,-42.968750
35,-42.968750
36,-42.968750
37,-42.968750
38,-39.062500
39,-39.062500
40,-39.062500
41,-39.062500
42,-39.062500
43,-35.156250
44,-35.156250
45,-35.156250
46,-35.156250
47,-35.156250
48,-31.250000
49,-31.250000
50,-31.250000
51,-31.250000
52,-27.343750
53,-27.343750
54,-27.343750
55,-27.343750
56,-27.343750
57,-23.437500
58,-23.437500
59,-23.437500
60,-23.437500
61,-19.531250
62,-19.531250
63,-19.531250
64,-19.531250
65,-15.625000
66,-15.625000
67,-15.625000
68,-15.625000
69,-11.718750
70,-11.718750
71,-11.718750
72,-11.718750
73,-11.718750
74,-7.812500
75,-7.812500
76,-7.812500
77,-7.812500
78,-7.812500
79,-7.812500
80,-3.906250
81,-3.906250
82,-3.906250
83,0.000000
84,0.000000
85,0.000000
86,0.000000
87,0.000000
88,0.000000
89,3.906250
90,3.906250
91,3.906250
92,3.906250
93,7.812500
94,7.812500
95,7.812500
96,7.812500
97,7.812500
98,11.718750
99,11.718750
100,11.718750
101,11.718750
102,11.718750
103,15.625000
104,15.625000
105,15.625000
106,15.625000
107,15.625000
108,19.531250
109,19.531250
110,19.531250
111,19.531250
112,23.437500
113,23.437500
114,23.437500
115,23.437500
116,23.437500
117,23.437500
118,27.343750
119,27.343750
120,27.343750
121,27.343750
122,27.343750
123,31.250000
124,31.250000
125,31.250000
126,31.250000
127,31.250000
128,35.156250
129,35.156250
130,35.156250
131,35.156250
132,35.156250
133,35.156250
134,39.062500
135,39.062500
136,39.062500
137,39.062500
138,39.062500
139,42.968750
140,42.968750
141,42.968750
142,42.968750
143,42.968750
144,46.875000
145,46.875000
146,46.875000
147,46.875000
148,46.875000
149,46.875000
150,50.781250
151,50.781250
152,50.781250
153,50.781250
154,50.781250
155,54.687500
156,54.687500
157,54.687500
158,54.687500
159,54.687500
160,54.687500
161,58.593750
162,58.593750
163,58.593750
164,58.593750
165,58.593750
166,58.593750
167,62.500000
168,62.500000
169,62.500000
170,62.500000
171,62.500000
172,62.500000
173,62.500000
174,66.406250
175,66.406250
176,66.406250
177,66.406250
178,66.406250
179,66.406250
180,70.312500
181,70.312500
182,70.312500
183,70.312500
184,70.312500
185,74.218750
186,70.312500
187,74.218750
188,74.218750
189,74.218750
190,74.218750
191,74.218750
192,74.218750
193,74.218750
194,74.218750
195,78.125000
196,78.125000
197,78.125000
198,78.125000
199,78.125000
200,82.031250
201,82.031250
202,82.031250
203,82.031250
204,82.031250
205,82.031250
206,82.031250
207,82.031250
208,82.031250
209,82.031250
210,85.937500
211,85.937500
212,85.937500
213,85.937500
214,85.937500
215,85.937500
216,85.937500
217,85.937500
218,89.843750
219,89.843750
220,89.843750
221,89.843750
222,89.843750
223,89.843750
224,89.843750
225,89.843750
226,89.843750
227,93.750000
228,93.750000
229,93.750000
230,93.750000
231,93.750000
232,93.750000
233,93.750000
234,93.750000
235,93.750000
236,97.656250
237,93.750000
238,97.656250
239,97.656250
240,97.656250
241,97.656250
242,97.656250
243,97.656250
244,97.656250
245,97.656250
246,97.656250
247,101.562500
248,101.562500
249,101.562500
250,101.562500
251,101.562500
252,101.562500
253,101.562500
254,101.562500
255,101.562500
256,101.562500
257,101.562500
258,101.562500
259,101.562500
260,101.562500
261,101.562500
262,101.562500
263,101.562500
264,101.562500
265,105.468750
266,105.468750
267,105.468750
268,105.468750
269,105.468750
270,105.468750
271,105.468750
272,105.468750
273,105.468750
274,105.468750
275,105.468750
276,105.468750
277,105.468750
278,105.468750
279,109.375000
280,105.468750
281,105.468750
282,105.468750
283,109.375000
284,109.375000
285,109.375000
286,109.375000
287,109.375000
288,109.375000
289,109.375000
290,109.375000
291,109.375000
292,109.375000
293,109.375000
294,109.375000
295,109.375000
296,109.375000
297,109.375000
298,109.375000
299,109.375000
300,109.375000
301,109.375000
302,113.281250
303,109.375000
304,109.375000
305,109.375000
306,113.281250
307,113.281250
308,113.281250
309,113.281250
310,113.281250
311,113.281250
312,113.281250
313,113.281250
314,113.281250
315,113.281250
316,113.281250
317,113.281250
318,113.281250
319,113.281250
320,113.281250
321,113.281250
322,113.281250
323,113.281250
324,113.281250
325,113.281250
326,113.281250
327,113.281250
328,113.281250
329,113.281250
330,113.281250
331,113.281250
332,113.281250
333,113.281250
334,113.281250
335,113.281250
336,113.281250
337,113.281250
338,113.281250
339,113.281250
340,113.281250
341,113.281250
342,113.281250
343,113.281250
344,113.281250
345,113.281250
346,113.281250
347,113.281250
348,113.281250
349,109.375000
350,109.375000
351,109.375000
352,109.375000
353,113.281250
354,109.375000
355,109.375000
356,109.375000
357,109.375000
358,109.375000
359,109.375000
360,109.375000
361,109.375000
362,109.375000
363,109.375000
364,109.375000
365,109.375000
366,109.375000
367,109.375000
368,109.375000
369,109.375000
370,109.375000
371,109.375000
372,109.375000
373,109.375000
374,109.375000
375,105.468750
376,105.468750
377,105.468750
378,105.468750
379,105.468750
380,105.468750
381,105.468750
382,105.468750
383,105.468750
384,105.468750
385,105.468750
386,105.468750
387,105.468750
388,105.468750
389,105.468750
390,105.468750
391,105.468750
392,101.562500
393,101.562500
394,101.562500
395,101.562500
396,101.562500
397,101.562500
398,101.562500
399,101.562500
400,101.562500
401,101.562500
402,101.562500
403,97.656250
404,97.656250
405,97.656250
406,97.656250
407,97.656250
408,97.656250
409,97.656250
410,97.656250
411,97.656250
412,97.656250
413,97.656250
414,97.656250
415,93.750000
416,93.750000
417,93.750000
418,93.750000
419,93.750000
420,93.750000
421,93.750000
422,93.750000
423,89.843750
424,93.750000
425,93.750000
426,89.843750
427,89.843750
428,89.843750
429,89.843750
430,89.843750
431,89.843750
432,89.843750
433,85.937500
434,85.937500
435,85.937500
436,85.937500
437,85.937500
438,85.937500
439,85.937500
440,85.937500
441,85.937500
442,85.937500
443,82.031250
444,82.031250
445,82.031250
446,82.031250
447,82.031250
448,82.031250
449,82.031250
450,82.031250
451,78.125000
452,78.125000
453,78.125000
454,78.125000
455,78.125000
456,78.125000
457,74.218750
458,78.125000
459,74.218750
460,74.218750
461,74.218750
462,74.218750
463,74.218750
464,70.312500
465,70.312500
466,70.312500
467,70.312500
468,70.312500
469,66.406250
470,66.406250
471,66.406250
472,66.406250
473,66.406250
474,66.406250
475,66.406250
476,66.406250
477,62.500000
478,62.500000
479,62.500000
480,62.500000
481,62.500000
482,62.500000
483,58.593750
484,58.593750
485,58.593750
486,58.593750
487,58.593750
488,58.593750
489,54.687500
490,54.687500
491,54.687500
492,54.687500
493,54.687500
494,50.781250
495,50.781250
496,50.781250
497,50.781250
498,50.781250
499,46.875000
500,46.875000
501,46.875000
502,46.875000
503,46.875000
504,46.875000
505,46.875000
506,42.968750
507,42.968750
508,42.968750
509,42.968750
510,39.062500
511,39.062500
512,39.062500
513,39.062500
514,35.156250
515,35.156250
516,35.156250
517,35.156250
518,35.156250
519,35.156250
520,31.250000
521,31.250000
522,31.250000
523,31.250000
524,31.250000
525,27.343750
526,27.343750
527,27.343750
528,27.343750
529,23.437500
530,23.437500
531,23.437500
532,23.437500
533,23.437500
534,19.531250
535,19.531250
536,19.531250
537,19.531250
538,19.531250
539,15.625000
540,15.625000
541,15.625000
542,15.625000
543,15.625000
544,15.625000
545,11.718750
546,11.718750
547,11.718750
548,11.718750
549,7.812500
550,7.812500
551,7.812500
552,7.812500
553,7.812500
554,3.906250
555,3.906250
556,3.906250
557,3.906250
558,0.000000
559,0.000000
560,0.000000
561,0.000000
562,0.000000
563,-3.906250
564,-3.906250
565,-3.906250
566,-7.812500
567,-3.906250
568,-7.812500
569,-7.812500
570,-7.812500
571,-7.812500
572,-11.718750
573,-11.718750
574,-11.718750
575,-11.718750
576,-15.625000
577,-15.625000
578,-15.625000
579,-15.625000
580,-15.625000
581,-19.531250
582,-19.531250
583,-19.531250
584,-19.531250
585,-23.437500
586,-23.437500
587,-23.437500
588,-23.437500
589,-27.343750
590,-27.343750
591,-27.343750
592,-27.343750
593,-31.250000
594,-31.250000
595,-31.250000
596,-31.250000
597,-35.156250
598,-35.156250
599,-35.156250
600,-35.156250
601,-35.156250
602,-39.062500
603,-39.062500
604,-39.062500
605,-39.062500
606,-42.968750
607,-42.968750
608,-42.968750
609,-42.968750
610,-42.968750
611,-42.968750
612,-46.875000
613,-46.875000
614,-46.875000
615,-46.875000
616,-50.781250
617,-50.781250
618,-50.781250
619,-50.781250
620,-54.687500
621,-54.687500
622,-54.687500
623,-54.687500
624,-58.593750
625,-58.593750
626,-58.593750
627,-58.593750
628,-58.593750
629,-62.500000
630,-62.500000
631,-62.500000
632,-62.500000
633,-66.406250
634,-66.406250
635,-66.406250
636,-66.406250
637,-70.312500
638,-70.312500
639,-70.312500
640,-70.312500
641,-70.312500
642,-74.218750
643,-74.218750
644,-74.218750
645,-74.218750
646,-74.218750
647,-78.125000
648,-78.125000
649,-78.125000
650,-78.125000
651,-78.125000
652,-82.031250
653,-82.031250
654,-82.031250
655,-82.031250
656,-85.937500
657,-85.937500
658,-85.937500
659,-85.937500
660,-85.937500
661,-89.843750
662,-89.843750
663,-89.843750
664,-89.843750
665,-93.750000
666,-93.750000
667,-93.750000
668,-93.750000
669,-93.750000
670,-97.656250
671,-93.750000
672,-97.656250
673,-97.656250
674,-97.656250
675,-97.656250
676,-101.562500
677,-101.562500
678,-101.562500
679,-101.562500
680,-101.562500
681,-101.562500
682,-101.562500
683,-105.468750
684,-105.468750
685,-105.468750
686,-105.468750
687,-105.468750
688,-109.375000
689,-109.375000
690,-109.375000
691,-109.375000
692,-109.375000
693,-113.281250
694,-113.281250
695,-113.281250
696,-113.281250
697,-113.281250
698,-113.281250
699,-113.281250
700,-117.187500
701,-117.187500
702,-117.187500
703,-117.187500
704,-117.187500
705,-121.093750
706,-121.093750
707,-121.093750
708,-121.093750
709,-121.093750
710,-121.093750
711,-121.093750
712,-121.093750
713,-125.000000
714,-125.000000
715,-125.000000
716,-125.000000
717,-125.000000
718,-125.000000
719,-128.906250
720,-128.906250
721,-128.906250
722,-128.906250
723,-128.906250
724,-128.906250
725,-128.906250
726,-132.812500
727,-132.812500
728,-132.812500
729,-132.812500
730,-132.812500
731,-132.812500
732,-132.812500
733,-132.812500
734,-136.718750
735,-136.718750
736,-136.718750
737,-136.718750
738,-136.718750
739,-136.718750
740,-136.718750
741,-136.718750
742,-140.625000
743,-140.625000
744,-140.625000
745,-140.625000
746,-140.625000
747,-144.531250
748,-144.531250
749,-140.625000
750,-140.625000
751,-144.531250
752,-144.531250
753,-144.531250
754,-144.531250
755,-144.531250
756,-144.531250
757,-144.531250
758,-144.531250
759,-148.437500
760,-148.437500
761,-148.437500
762,-148.437500
763,-148.437500
764,-148.437500
765,-148.437500
766,-148.437500
767,-148.437500
768,-148.437500
769,-148.437500
770,-148.437500
771,-148.437500
772,-152.343750
773,-152.343750
774,-152.343750
775,-152.343750
776,-152.343750
777,-152.343750
778,-152.343750
779,-152.343750
780,-152.343750
781,-152.343750
782,-152.343750
783,-152.343750
784,-152.343750
785,-152.343750
786,-152.343750
787,-152.343750
788,-152.343750
789,-152.343750
790,-152.343750
791,-152.343750
792,-152.343750
793,-156.250000
794,-156.250000
795,-156.250000
796,-156.250000
797,-156.250000
798,-156.250000
799,-156.250000
800,-156.250000
801,-156.250000
802,-156.250000
803,-156.250000
804,-156.250000
805,-156.250000
806,-156.250000
807,-156.250000
808,-156.250000
809,-156.250000
810,-156.250000
811,-156.250000
812,-156.250000
813,-156.250000
814,-156.250000
815,-156.250000
816,-156.250000
817,-156.250000
818,-156.250000
819,-156.250000
820,-156.250000
821,-156.250000
822,-156.250000
823,-156.250000
824,-156.250000
825,-156.250000
826,-156.250000
827,-156.250000
828,-156.250000
829,-156.250000
830,-156.250000
831,-156.250000
832,-152.343750
833,-156.250000
834,-156.250000
835,-152.343750
836,-156.250000
837,-156.250000
838,-156.250000
839,-152.343750
840,-152.343750
841,-152.343750
842,-152.343750
843,-152.343750
844,-152.343750
845,-152.343750
846,-152.343750
847,-152.343750
848,-152.343750
849,-152.343750
850,-152.343750
851,-152.343750
852,-152.343750
853,-152.343750
854,-152.343750
855,-152.343750
856,-152.343750
857,-152.343750
858,-148.437500
859,-148.437500
860,-148.437500
861,-148.437500
862,-148.437500
863,-148.437500
864,-148.437500
865,-148.437500
866,-148.437500
867,-148.437500
868,-148.437500
869,-144.531250
870,-144.531250
871,-148.437500
872,-144.531250
873,-144.531250
874,-144.531250
875,-144.531250
876,-144.531250
877,-144.531250
878,-144.531250
879,-144.531250
880,-144.531250
881,-140.625000
882,-140.625000
883,-140.625000
884,-140.625000
885,-140.625000
886,-140.625000
887,-140.625000
888,-140.625000
889,-140.625000
890,-140.625000
891,-136.718750
892,-136.718750
893,-136.718750
894,-136.718750
895,-136.718750
896,-136.718750
897,-136.718750
898,-136.718750
899,-136.718750
900,-132.812500
901,-132.812500
902,-132.812500
903,-132.812500
904,-132.812500
905,-132.812500
906,-132.812500
907,-128.906250
908,-128.906250
909,-128.906250
910,-128.906250
911,-128.906250
912,-128.906250
913,-128.906250
914,-125.000000
915,-125.000000
916,-125.000000
917,-125.000000
918,-125.000000
919,-125.000000
920,-121.093750
921,-121.093750
922,-121.093750
923,-121.093750
924,-121.093750
925,-121.093750
926,-121.093750
927,-117.187500
928,-117.187500
929,-117.187500
930,-117.187500
931,-117.187500
932,-117.187500
933,-113.281250
934,-113.281250
935,-113.281250
936,-113.281250
937,-113.281250
938,-113.281250
939,-113.281250
940,-109.375000
941,-109.375000
942,-109.375000
943,-109.375000
944,-105.468750
945,-105.468750
946,-105.468750
947,-105.468750
948,-105.468750
949,-101.562500
950,-101.562500
951,-101.562500
952,-101.562500
953,-101.562500
954,-101.562500
955,-97.656250
956,-97.656250
957,-97.656250
958,-97.656250
959,-97.656250
960,-93.750000
961,-93.750000
962,-93.750000
963,-93.750000
964,-93.750000
965,-89.843750
966,-89.843750
967,-89.843750
968,-89.843750
969,-89.843750
970,-85.937500
971,-85.937500
972,-85.937500
973,-85.937500
974,-85.937500
975,-82.031250
976,-82.031250
977,-82.031250
978,-82.031250
979,-82.031250
980,-78.125000
981,-78.125000
982,-78.125000
983,-78.125000
984,-78.125000
985,-74.218750
986,-74.218750
987,-74.218750
988,-74.218750
989,-74.218750
990,-70.312500
991,-70.312500
992,-70.312500
993,-70.312500
994,-66.406250
995,-66.406250
996,-66.406250
997,-66.406250
998,-66.406250
999,-62.500000
1000,-62.500000
1001,-62.500000
1002,-62.500000
1003,-62.500000
1004,-58.593750
1005,-58.593750
1006,-58.593750
1007,-58.593750
1008,-58.593750
1009,-54.687500
1010,-54.687500
1011,-54.687500
1012,-54.687500
1013,-54.687500
1014,-50.781250
1015,-50.781250
1016,-50.781250
1017,-50.781250
1018,-46.875000
1019,-46.875000
1020,-46.875000
1021,-46.875000
1022,-46.875000
1023,-42.968750
1024,-42.968750
1025,-42.968750
1026,-42.968750
1027,-39.062500
1028,-39.062500
1029,-39.062500
1030,-39.062500
1031,-39.062500
1032,-35.156250
1033,-35.156250
1034,-35.156250
1035,-35.156250
1036,-31.250000
1037,-31.250000
1038,-31.250000
1039,-31.250000
1040,-27.343750
1041,-27.343750
1042,-27.343750
1043,-27.343750
1044,-27.343750
1045,-27.343750
1046,-23.437500
1047,-23.437500
1048,-23.437500
1049,-19.531250
1050,-19.531250
1051,-19.531250
1052,-19.531250
1053,-19.531250
1054,-15.625000
1055,-15.625000
1056,-15.625000
1057,-15.625000
1058,-11.718750
1059,-11.718750
1060,-11.718750
1061,-11.718750
1062,-11.718750
1063,-7.812500
1064,-7.812500
1065,-7.812500
1066,-7.812500
1067,-7.812500
1068,-3.906250
1069,-3.906250
1070,-3.906250
1071,-3.906250
1072,-3.906250
1073,0.000000
1074,0.000000
1075,0.000000
1076,0.000000
1077,0.000000
1078,3.906250
1079,3.906250
1080,3.906250
1081,7.812500
1082,7.812500
1083,7.812500
1084,7.812500
1085,7.812500
1086,11.718750
1087,11.718750
1088,11.718750
1089,11.718750
1090,11.718750
1091,15.625000
1092,15.625000
1093,15.625000
1094,15.625000
1095,15.625000
1096,19.531250
1097,19.531250
1098,19.531250
1099,19.531250
1100,23.437500
1101,23.437500
1102,23.437500
1103,23.437500
1104,23.437500
1105,23.437500
1106,23.437500
1107,27.343750
1108,27.343750
1109,27.343750
1110,27.343750
1111,31.250000
1112,31.250000
1113,31.250000
1114,31.250000
1115,31.250000
1116,35.156250
1117,35.156250
1118,35.156250
1119,35.156250
1120,35.156250
1121,39.062500
1122,39.062500
1123,39.062500
1124,39.062500
1125,39.062500
1126,39.062500
1127,42.968750
1128,42.968750
1129,42.968750
1130,42.968750
1131,42.968750
1132,46.875000
1133,46.875000
1134,46.875000
1135,46.875000
1136,46.875000
1137,46.875000
1138,50.781250
1139,50.781250
1140,50.781250
1141,50.781250
1142,50.781250
1143,50.781250
1144,54.687500
1145,54.687500
1146,54.687500
1147,54.687500
1148,54.687500
1149,54.687500
1150,58.593750
1151,58.593750
1152,58.593750
1153,58.593750
1154,58.593750
1155,58.593750
1156,58.593750
1157,58.593750
1158,62.500000
1159,62.500000
1160,62.500000
1161,62.500000
1162,62.500000
1163,66.406250
1164,66.406250
1165,66.406250
1166,66.406250
1167,66.406250
1168,66.406250
1169,70.312500
1170,66.406250
1171,70.312500
1172,70.312500
1173,70.312500
1174,70.312500
1175,70.312500
1176,74.218750
1177,74.218750
1178,74.218750
1179,74.218750
1180,74.218750
1181,74.218750
1182,74.218750
1183,78.125000
1184,78.125000
1185,78.125000
1186,78.125000
1187,78.125000
1188,78.125000
1189,78.125000
1190,78.125000
1191,78.125000
1192,82.031250
1193,82.031250
1194,82.031250
1195,82.031250
1196,82.031250
1197,82.031250
1198,82.031250
1199,85.937500
1200,85.937500
1201,85.937500
1202,85.937500
1203,85.937500
1204,85.937500
1205,85.937500
1206,85.937500
1207,85.937500
1208,89.843750
1209,89.843750
1210,89.843750
1211,89.843750
1212,89.843750
1213,89.843750
1214,89.843750
1215,89.843750
1216,93.750000
1217,93.750000
1218,93.750000
1219,93.750000
1220,93.750000
1221,93.750000
1222,93.750000
1223,93.750000
1224,93.750000
1225,93.750000
1226,93.750000
1227,97.656250
1228,97.656250
1229,97.656250
1230,97.656250
1231,97.656250
1232,97.656250
1233,97.656250
1234,97.656250
1235,97.656250
1236,97.656250
1237,101.562500
1238,101.562500
1239,101.562500
1240,101.562500
1241,101.562500
1242,101.562500
1243,101.562500
