Channel              :,CH1
Frequency            :,1.012kHz
Period               :,0.989ms
PK-PK                :,281.3mV
Probe attenuation    :,1X
Voltage per ADC value:,0.244141mV
Time interval        :,1.00000us

index,CH1_Voltage(mV)
1,-74.218750
2,-74.218750
3,-70.312500
4,-70.312500
5,-70.312500
6,-70.312500
7,-70.312500
8,-66.406250
9,-66.406250
10,-66.406250
11,-66.406250
12,-66.406250
13,-62.500000
14,-62.500000
15,-62.500000
16,-62.500000
17,-58.593750
18,-58.593750
19,-58.593750
20,-58.593750
21,-58.593750
22,-54.687500
23,-54.687500
24,-54.687500
25,-54.687500
26,-50.781250
27,-50.781250
28,-50.781250
29,-50.781250
30,-50.781250
31,-46.875000
32,-46.875000
33,-46.875000
34,-46.875000
35,-46.875000
36,-42.968750
37,-42.968750
38,-42.968750
39,-42.968750
40,-39.062500
41,-39.062500
42,-39.062500
43,-39.062500
44,-35.156250
45,-35.156250
46,-35.156250
47,-35.156250
48,-35.156250
49,-31.250000
50,-31.250000
51,-31.250000
52,-31.250000
53,-27.343750
54,-27.343750
55,-27.343750
56,-27.343750
57,-27.343750
58,-23.437500
59,-23.437500
60,-23.437500
61,-23.437500
62,-19.531250
63,-19.531250
64,-19.531250
65,-19.531250
66,-15.625000
67,-15.625000
68,-15.625000
69,-15.625000
70,-11.718750
71,-11.718750
72,-11.718750
73,-11.718750
74,-11.718750
75,-7.812500
76,-7.812500
77,-7.812500
78,-7.812500
79,-3.906250
80,-3.906250
81,-3.906250
82,-3.906250
83,-3.906250
84,0.000000
85,0.000000
86,0.000000
87,3.906250
88,0.000000
89,3.906250
90,3.906250
91,3.906250
92,7.812500
93,7.812500
94,7.812500
95,7.812500
96,7.812500
97,11.718750
98,11.718750
99,11.718750
100,11.718750
101,11.718750
102,15.625000
103,15.625000
104,15.625000
105,15.625000
106,15.625000
107,19.531250
108,19.531250
109,19.531250
110,23.437500
111,19.531250
112,23.437500
113,23.437500
114,23.437500
115,23.437500
116,27.343750
117,27.343750
118,27.343750
119,27.343750
120,27.343750
121,31.250000
122,31.250000
123,31.250000
124,31.250000
125,31.250000
126,31.250000
127,35.156250
128,35.156250
129,35.156250
130,35.156250
131,39.062500
132,39.062500
133,39.062500
134,39.062500
135,39.062500
136,39.062500
137,42.968750
138,42.968750
139,42.968750
140,42.968750
141,42.968750
142,46.875000
143,46.875000
144,46.875000
145,46.875000
146,46.875000
147,50.781250
148,50.781250
149,50.781250
150,50.781250
151,50.781250
152,54.687500
153,54.687500
154,54.687500
155,54.687500
156,54.687500
157,54.687500
158,54.687500
159,58.593750
160,58.593750
161,58.593750
162,58.593750
163,58.593750
164,58.593750
165,62.500000
166,62.500000
167,62.500000
168,62.500000
169,62.500000
170,66.406250
171,66.406250
172,66.406250
173,66.406250
174,66.406250
175,66.406250
176,66.406250
177,70.312500
178,70.312500
179,70.312500
180,70.312500
181,70.312500
182,70.312500
183,70.312500
184,74.218750
185,74.218750
186,74.218750
187,74.218750
188,74.218750
189,74.218750
190,74.218750
191,78.125000
192,78.125000
193,78.125000
194,78.125000
195,78.125000
196,78.125000
197,82.031250
198,82.031250
199,82.031250
200,82.031250
201,82.031250
202,82.031250
203,82.031250
204,82.031250
205,85.937500
206,85.937500
207,85.937500
208,85.937500
209,85.937500
210,85.937500
211,85.937500
212,85.937500
213,85.937500
214,89.843750
215,89.843750
216,89.843750
217,89.843750
218,89.843750
219,89.843750
220,93.750000
221,93.750000
222,93.750000
223,93.750000
224,93.750000
225,93.750000
226,93.750000
227,93.750000
228,93.750000
229,93.750000
230,97.656250
231,97.656250
232,97.656250
233,97.656250
234,97.656250
235,97.656250
236,97.656250
237,97.656250
238,97.656250
239,101.562500
240,101.562500
241,101.562500
242,101.562500
243,101.562500
244,101.562500
245,101.562500
246,101.562500
247,101.562500
248,101.562500
249,101.562500
250,105.468750
251,105.468750
252,101.562500
253,105.468750
254,105.468750
255,105.468750
256,105.468750
257,105.468750
258,105.468750
259,105.468750
260,105.468750
261,105.468750
262,105.468750
263,105.468750
264,109.375000
265,109.375000
266,109.375000
267,105.468750
268,109.375000
269,109.375000
270,109.375000
271,109.375000
272,109.375000
273,109.375000
274,109.375000
275,109.375000
276,109.375000
277,109.375000
278,109.375000
279,109.375000
280,109.375000
281,109.375000
282,113.281250
283,113.281250
284,113.281250
285,109.375000
286,113.281250
287,113.281250
288,113.281250
289,113.281250
290,113.281250
291,113.281250
292,113.281250
293,113.281250
294,113.281250
295,113.281250
296,113.281250
297,113.281250
298,113.281250
299,113.281250
300,113.281250
301,113.281250
302,113.281250
303,113.281250
304,113.281250
305,113.281250
306,113.281250
307,113.281250
308,113.281250
309,113.281250
310,113.281250
311,117.187500
312,113.281250
313,113.281250
314,113.281250
315,113.281250
316,113.281250
317,113.281250
318,117.187500
319,113.281250
320,117.187500
321,113.281250
322,113.281250
323,113.281250
324,113.281250
325,113.281250
326,117.187500
327,117.187500
328,117.187500
329,117.187500
330,117.187500
331,117.187500
332,113.281250
333,113.281250
334,113.281250
335,117.187500
336,117.187500
337,113.281250
338,117.187500
339,117.187500
340,117.187500
341,117.187500
342,113.281250
343,113.281250
344,113.281250
345,113.281250
346,113.281250
347,113.281250
348,113.281250
349,113.281250
350,113.281250
351,113.281250
352,113.281250
353,113.281250
354,113.281250
355,113.281250
356,113.281250
357,113.281250
358,113.281250
359,113.281250
360,113.281250
361,113.281250
362,113.281250
363,113.281250
364,113.281250
365,113.281250
366,113.281250
367,113.281250
368,109.375000
369,109.375000
370,113.281250
371,113.281250
372,113.281250
373,109.375000
374,109.375000
375,109.375000
376,109.375000
377,109.375000
378,109.375000
379,109.375000
380,109.375000
381,109.375000
382,109.375000
383,109.375000
384,109.375000
385,109.375000
386,109.375000
387,109.375000
388,109.375000
389,105.468750
390,105.468750
391,105.468750
392,105.468750
393,105.468750
394,105.468750
395,105.468750
396,105.468750
397,105.468750
398,105.468750
399,105.468750
400,101.562500
401,101.562500
402,101.562500
403,101.562500
404,101.562500
405,101.562500
406,101.562500
407,101.562500
408,101.562500
409,101.562500
410,101.562500
411,101.562500
412,101.562500
413,97.656250
414,97.656250
415,97.656250
416,97.656250
417,97.656250
418,97.656250
419,97.656250
420,97.656250
421,97.656250
422,97.656250
423,93.750000
424,93.750000
425,93.750000
426,93.750000
427,93.750000
428,93.750000
429,93.750000
430,93.750000
431,89.843750
432,89.843750
433,89.843750
434,89.843750
435,89.843750
436,89.843750
437,89.843750
438,89.843750
439,89.843750
440,85.937500
441,85.937500
442,85.937500
443,85.937500
444,85.937500
445,85.937500
446,85.937500
447,82.031250
448,82.031250
449,82.031250
450,82.031250
451,82.031250
452,82.031250
453,78.125000
454,78.125000
455,82.031250
456,78.125000
457,78.125000
458,78.125000
459,78.125000
460,78.125000
461,78.125000
462,74.218750
463,74.218750
464,74.218750
465,74.218750
466,74.218750
467,74.218750
468,70.312500
469,70.312500
470,70.312500
471,70.312500
472,70.312500
473,70.312500
474,70.312500
475,66.406250
476,66.406250
477,66.406250
478,66.406250
479,66.406250
480,62.500000
481,62.500000
482,62.500000
483,62.500000
484,62.500000
485,62.500000
486,62.500000
487,58.593750
488,58.593750
489,58.593750
490,58.593750
491,58.593750
492,54.687500
493,54.687500
494,54.687500
495,54.687500
496,54.687500
497,54.687500
498,50.781250
499,50.781250
500,50.781250
501,50.781250
502,50.781250
503,46.875000
504,46.875000
505,46.875000
506,46.875000
507,46.875000
508,42.968750
509,42.968750
510,42.968750
511,42.968750
512,42.968750
513,39.062500
514,39.062500
515,39.062500
516,39.062500
517,39.062500
518,39.062500
519,35.156250
520,35.156250
521,35.156250
522,35.156250
523,31.250000
524,31.250000
525,31.250000
526,31.250000
527,31.250000
528,31.250000
529,27.343750
530,27.343750
531,27.343750
532,23.437500
533,23.437500
534,23.437500
535,23.437500
536,19.531250
537,19.531250
538,19.531250
539,19.531250
540,19.531250
541,19.531250
542,15.625000
543,15.625000
544,15.625000
545,15.625000
546,15.625000
547,11.718750
548,11.718750
549,11.718750
550,11.718750
551,7.812500
552,7.812500
553,7.812500
554,7.812500
555,3.906250
556,3.906250
557,3.906250
558,3.906250
559,3.906250
560,3.906250
561,0.000000
562,0.000000
563,0.000000
564,-3.906250
565,-3.906250
566,-3.906250
567,-3.906250
568,-3.906250
569,-7.812500
570,-7.812500
571,-7.812500
572,-7.812500
573,-11.718750
574,-11.718750
575,-11.718750
576,-11.718750
577,-15.625000
578,-15.625000
579,-15.625000
580,-15.625000
581,-19.531250
582,-19.531250
583,-19.531250
584,-19.531250
585,-19.531250
586,-19.531250
587,-23.437500
588,-23.437500
589,-27.343750
590,-27.343750
591,-27.343750
592,-27.343750
593,-27.343750
594,-27.343750
595,-31.250000
596,-31.250000
597,-31.250000
598,-31.250000
599,-35.156250
600,-35.156250
601,-35.156250
602,-35.156250
603,-39.062500
604,-39.062500
605,-39.062500
606,-39.062500
607,-42.968750
608,-42.968750
609,-42.968750
610,-42.968750
611,-42.968750
612,-46.875000
613,-46.875000
614,-46.875000
615,-46.875000
616,-50.781250
617,-50.781250
618,-50.781250
619,-50.781250
620,-50.781250
621,-54.687500
622,-54.687500
623,-54.687500
624,-54.687500
625,-58.593750
626,-58.593750
627,-58.593750
628,-58.593750
629,-58.593750
630,-62.500000
631,-62.500000
632,-62.500000
633,-66.406250
634,-66.406250
635,-66.406250
636,-66.406250
637,-66.406250
638,-70.312500
639,-70.312500
640,-70.312500
641,-70.312500
642,-74.218750
643,-74.218750
644,-74.218750
645,-74.218750
646,-78.125000
647,-78.125000
648,-78.125000
649,-78.125000
650,-78.125000
651,-82.031250
652,-82.031250
653,-82.031250
654,-82.031250
655,-82.031250
656,-82.031250
657,-85.937500
658,-85.937500
659,-85.937500
660,-85.937500
661,-85.937500
662,-89.843750
663,-89.843750
664,-89.843750
665,-89.843750
666,-93.750000
667,-93.750000
668,-93.750000
669,-93.750000
670,-93.750000
671,-97.656250
672,-97.656250
673,-97.656250
674,-97.656250
675,-97.656250
676,-101.562500
677,-101.562500
678,-101.562500
679,-101.562500
680,-105.468750
681,-101.562500
682,-105.468750
683,-105.468750
684,-105.468750
685,-105.468750
686,-109.375000
687,-109.375000
688,-109.375000
689,-109.375000
690,-109.375000
691,-109.375000
692,-113.281250
693,-113.281250
694,-113.281250
695,-113.281250
696,-113.281250
697,-117.187500
698,-117.187500
699,-117.187500
700,-117.187500
701,-117.187500
702,-117.187500
703,-121.093750
704,-121.093750
705,-121.093750
706,-121.093750
707,-121.093750
708,-125.000000
709,-125.000000
710,-125.000000
711,-125.000000
712,-125.000000
713,-125.000000
714,-125.000000
715,-128.906250
716,-125.000000
717,-128.906250
718,-128.906250
719,-128.906250
720,-128.906250
721,-132.812500
722,-132.812500
723,-132.812500
724,-132.812500
725,-132.812500
726,-132.812500
727,-132.812500
728,-136.718750
729,-136.718750
730,-136.718750
731,-136.718750
732,-136.718750
733,-136.718750
734,-136.718750
735,-136.718750
736,-136.718750
737,-140.625000
738,-140.625000
739,-140.625000
740,-140.625000
741,-140.625000
742,-140.625000
743,-140.625000
744,-144.531250
745,-144.531250
746,-144.531250
747,-144.531250
748,-144.531250
749,-144.531250
750,-144.531250
751,-144.531250
752,-144.531250
753,-144.531250
754,-144.531250
755,-148.437500
756,-148.437500
757,-148.437500
758,-148.437500
759,-148.437500
760,-148.437500
761,-148.437500
762,-148.437500
763,-152.343750
764,-152.343750
765,-148.437500
766,-152.343750
767,-152.343750
768,-152.343750
769,-152.343750
770,-152.343750
771,-152.343750
772,-152.343750
773,-152.343750
774,-152.343750
775,-152.343750
776,-152.343750
777,-152.343750
778,-152.343750
779,-152.343750
780,-152.343750
781,-156.250000
782,-156.250000
783,-156.250000
784,-156.250000
785,-156.250000
786,-156.250000
787,-156.250000
788,-156.250000
789,-156.250000
790,-156.250000
791,-156.250000
792,-156.250000
793,-156.250000
794,-156.250000
795,-156.250000
796,-156.250000
797,-156.250000
798,-156.250000
799,-156.250000
800,-156.250000
801,-160.156250
802,-160.156250
803,-160.156250
804,-156.250000
805,-156.250000
806,-160.156250
807,-160.156250
808,-160.156250
809,-160.156250
810,-160.156250
811,-160.156250
812,-160.156250
813,-156.250000
814,-160.156250
815,-160.156250
816,-160.156250
817,-160.156250
818,-160.156250
819,-160.156250
820,-160.156250
821,-160.156250
822,-160.156250
823,-156.250000
824,-156.250000
825,-156.250000
826,-160.156250
827,-160.156250
828,-160.156250
829,-160.156250
830,-156.250000
831,-156.250000
832,-160.156250
833,-156.250000
834,-156.250000
835,-156.250000
836,-156.250000
837,-156.250000
838,-156.250000
839,-156.250000
840,-156.250000
841,-156.250000
842,-156.250000
843,-156.250000
844,-156.250000
845,-156.250000
846,-156.250000
847,-156.250000
848,-156.250000
849,-156.250000
850,-156.250000
851,-156.250000
852,-152.343750
853,-152.343750
854,-152.343750
855,-156.250000
856,-152.343750
857,-152.343750
858,-152.343750
859,-152.343750
860,-152.343750
861,-152.343750
862,-152.343750
863,-152.343750
864,-152.343750
865,-152.343750
866,-152.343750
867,-148.437500
868,-148.437500
869,-148.437500
870,-148.437500
871,-148.437500
872,-148.437500
873,-148.437500
874,-148.437500
875,-148.437500
876,-144.531250
877,-144.531250
878,-144.531250
879,-144.531250
880,-144.531250
881,-144.531250
882,-144.531250
883,-144.531250
884,-144.531250
885,-144.531250
886,-144.531250
887,-140.625000
888,-140.625000
889,-140.625000
890,-140.625000
891,-140.625000
892,-140.625000
893,-140.625000
894,-140.625000
895,-136.718750
896,-136.718750
897,-136.718750
898,-136.718750
899,-136.718750
900,-136.718750
901,-136.718750
902,-136.718750
903,-136.718750
904,-132.812500
905,-132.812500
906,-132.812500
907,-132.812500
908,-132.812500
909,-132.812500
910,-132.812500
911,-132.812500
912,-128.906250
913,-128.906250
914,-128.906250
915,-128.906250
916,-125.000000
917,-125.000000
918,-125.000000
919,-125.000000
920,-125.000000
921,-125.000000
922,-125.000000
923,-125.000000
924,-121.093750
925,-121.093750
926,-121.093750
927,-121.093750
928,-121.093750
929,-121.093750
930,-121.093750
931,-117.187500
932,-117.187500
933,-117.187500
934,-117.187500
935,-117.187500
936,-113.281250
937,-113.281250
938,-113.281250
939,-113.281250
940,-113.281250
941,-113.281250
942,-109.375000
943,-109.375000
944,-109.375000
945,-109.375000
946,-109.375000
947,-109.375000
948,-105.468750
949,-105.468750
950,-105.468750
951,-105.468750
952,-101.562500
953,-101.562500
954,-101.562500
955,-101.562500
956,-97.656250
957,-101.562500
958,-101.562500
959,-97.656250
960,-97.656250
961,-97.656250
962,-93.750000
963,-93.750000
964,-93.750000
965,-93.750000
966,-93.750000
967,-93.750000
968,-89.843750
969,-89.843750
970,-89.843750
971,-89.843750
972,-89.843750
973,-85.937500
974,-85.937500
975,-85.937500
976,-85.937500
977,-85.937500
978,-82.031250
979,-82.031250
980,-82.031250
981,-82.031250
982,-78.125000
983,-78.125000
984,-78.125000
985,-78.125000
986,-78.125000
987,-74.218750
988,-74.218750
989,-74.218750
990,-74.218750
991,-70.312500
992,-70.312500
993,-70.312500
994,-70.312500
995,-70.312500
996,-66.406250
997,-66.406250
998,-66.406250
999,-66.406250
1000,-62.500000
1001,-62.500000
1002,-62.500000
1003,-62.500000
1004,-62.500000
1005,-58.593750
1006,-58.593750
1007,-58.593750
1008,-58.593750
1009,-54.687500
1010,-54.687500
1011,-54.687500
1012,-54.687500
1013,-54.687500
1014,-50.781250
1015,-50.781250
1016,-50.781250
1017,-50.781250
1018,-46.875000
1019,-50.781250
1020,-46.875000
1021,-46.875000
1022,-42.968750
1023,-42.968750
1024,-42.968750
1025,-42.968750
1026,-42.968750
1027,-39.062500
1028,-39.062500
1029,-39.062500
1030,-39.062500
1031,-39.062500
1032,-35.156250
1033,-35.156250
1034,-35.156250
1035,-35.156250
1036,-31.250000
1037,-31.250000
1038,-31.250000
1039,-31.250000
1040,-27.343750
1041,-27.343750
1042,-27.343750
1043,-27.343750
1044,-27.343750
1045,-27.343750
1046,-23.437500
1047,-23.437500
1048,-19.531250
1049,-19.531250
1050,-19.531250
1051,-19.531250
1052,-19.531250
1053,-19.531250
1054,-15.625000
1055,-15.625000
1056,-15.625000
1057,-15.625000
1058,-11.718750
1059,-11.718750
1060,-11.718750
1061,-11.718750
1062,-11.718750
1063,-11.718750
1064,-7.812500
1065,-7.812500
1066,-7.812500
1067,-3.906250
1068,-3.906250
1069,-3.906250
1070,-3.906250
1071,-3.906250
1072,0.000000
1073,0.000000
1074,0.000000
1075,0.000000
1076,0.000000
1077,3.906250
1078,3.906250
1079,3.906250
1080,3.906250
1081,7.812500
1082,7.812500
1083,7.812500
1084,7.812500
1085,7.812500
1086,11.718750
1087,11.718750
1088,11.718750
1089,11.718750
1090,11.718750
1091,15.625000
1092,15.625000
1093,15.625000
1094,15.625000
1095,19.531250
1096,19.531250
1097,19.531250
1098,19.531250
1099,19.531250
1100,19.531250
1101,23.437500
1102,23.437500
1103,23.437500
1104,23.437500
1105,23.437500
1106,27.343750
1107,27.343750
1108,27.343750
1109,27.343750
1110,31.250000
1111,31.250000
1112,31.250000
1113,31.250000
1114,31.250000
1115,35.156250
1116,35.156250
1117,35.156250
1118,35.156250
1119,35.156250
1120,39.062500
1121,39.062500
1122,39.062500
1123,39.062500
1124,42.968750
1125,39.062500
1126,42.968750
1127,42.968750
1128,42.968750
1129,42.968750
1130,46.875000
1131,46.875000
1132,46.875000
1133,46.875000
1134,46.875000
1135,46.875000
1136,46.875000
1137,50.781250
1138,50.781250
1139,50.781250
1140,54.687500
1141,54.687500
1142,54.687500
1143,54.687500
1144,54.687500
1145,54.687500
1146,54.687500
1147,58.593750
1148,58.593750
1149,58.593750
1150,58.593750
1151,58.593750
1152,58.593750
1153,62.500000
1154,62.500000
1155,62.500000
1156,62.500000
1157,62.500000
1158,62.500000
1159,66.406250
1160,66.406250
1161,66.406250
1162,66.406250
1163,66.406250
1164,66.406250
1165,66.406250
1166,70.312500
1167,70.312500
1168,70.312500
1169,70.312500
1170,70.312500
1171,70.312500
1172,74.218750
1173,74.218750
1174,74.218750
1175,74.218750
1176,74.218750
1177,74.218750
1178,78.125000
1179,78.125000
1180,78.125000
1181,78.125000
1182,78.125000
1183,78.125000
1184,78.125000
1185,78.125000
1186,82.031250
1187,82.031250
1188,82.031250
1189,82.031250
1190,82.031250
1191,82.031250
1192,82.031250
1193,82.031250
1194,85.937500
1195,85.937500
1196,85.937500
1197,85.937500
1198,85.937500
1199,85.937500
1200,85.937500
1201,85.937500
1202,85.937500
1203,89.843750
1204,89.843750
1205,89.843750
1206,89.843750
1207,89.843750
1208,89.843750
1209,89.843750
1210,89.843750
1211,93.750000
1212,93.750000
1213,93.750000
1214,93.750000
1215,93.750000
1216,93.750000
1217,93.750000
1218,93.750000
1219,93.750000
1220,97.656250
1221,97.656250
1222,97.656250
1223,97.656250
1224,97.656250
1225,97.656250
1226,97.656250
1227,97.656250
1228,97.656250
1229,97.656250
1230,101.562500
1231,101.562500
1232,101.562500
1233,101.562500
1234,101.562500
1235,101.562500
1236,101.562500
1237,101.562500
1238,101.562500
1239,101.562500
1240,101.562500
1241,105.468750
