Channel              :,CH1
Frequency            :,1.010kHz
Period               :,0.990ms
PK-PK                :,261.7mV
Probe attenuation    :,1X
Voltage per ADC value:,0.244141mV
Time interval        :,1.00000us

index,CH1_Voltage(mV)
1,-70.312500
2,-70.312500
3,-66.406250
4,-66.406250
5,-66.406250
6,-66.406250
7,-66.406250
8,-62.500000
9,-62.500000
10,-62.500000
11,-62.500000
12,-62.500000
13,-58.593750
14,-58.593750
15,-58.593750
16,-58.593750
17,-58.593750
18,-54.687500
19,-54.687500
20,-54.687500
21,-54.687500
22,-50.781250
23,-50.781250
24,-50.781250
25,-50.781250
26,-50.781250
27,-46.875000
28,-46.875000
29,-46.875000
30,-46.875000
31,-42.968750
32,-42.968750
33,-42.968750
34,-42.968750
35,-42.968750
36,-39.062500
37,-39.062500
38,-39.062500
39,-39.062500
40,-39.062500
41,-39.062500
42,-35.156250
43,-35.156250
44,-35.156250
45,-35.156250
46,-31.250000
47,-31.250000
48,-31.250000
49,-31.250000
50,-31.250000
51,-27.343750
52,-27.343750
53,-27.343750
54,-27.343750
55,-23.437500
56,-23.437500
57,-23.437500
58,-23.437500
59,-23.437500
60,-19.531250
61,-19.531250
62,-19.531250
63,-19.531250
64,-19.531250
65,-15.625000
66,-15.625000
67,-15.625000
68,-15.625000
69,-15.625000
70,-11.718750
71,-11.718750
72,-11.718750
73,-11.718750
74,-11.718750
75,-7.812500
76,-7.812500
77,-7.812500
78,-7.812500
79,-7.812500
80,-3.906250
81,-7.812500
82,-3.906250
83,-3.906250
84,-3.906250
85,0.000000
86,0.000000
87,0.000000
88,0.000000
89,0.000000
90,3.906250
91,3.906250
92,3.906250
93,3.906250
94,3.906250
95,7.812500
96,7.812500
97,7.812500
98,7.812500
99,7.812500
100,11.718750
101,11.718750
102,11.718750
103,11.718750
104,11.718750
105,15.625000
106,15.625000
107,15.625000
108,15.625000
109,15.625000
110,19.531250
111,19.531250
112,19.531250
113,19.531250
114,19.531250
115,23.437500
116,23.437500
117,23.437500
118,23.437500
119,23.437500
120,27.343750
121,27.343750
122,27.343750
123,27.343750
124,27.343750
125,31.250000
126,31.250000
127,31.250000
128,31.250000
129,31.250000
130,35.156250
131,35.156250
132,35.156250
133,35.156250
134,35.156250
135,35.156250
136,39.062500
137,39.062500
138,39.062500
139,39.062500
140,39.062500
141,39.062500
142,42.968750
143,42.968750
144,42.968750
145,42.968750
146,46.875000
147,46.875000
148,46.875000
149,46.875000
150,46.875000
151,46.875000
152,46.875000
153,50.781250
154,50.781250
155,50.781250
156,50.781250
157,50.781250
158,54.687500
159,54.687500
160,54.687500
161,54.687500
162,54.687500
163,54.687500
164,54.687500
165,58.593750
166,58.593750
167,58.593750
168,58.593750
169,58.593750
170,58.593750
171,62.500000
172,62.500000
173,62.500000
174,62.500000
175,62.500000
176,62.500000
177,62.500000
178,66.406250
179,66.406250
180,66.406250
181,66.406250
182,66.406250
183,66.406250
184,70.312500
185,66.406250
186,70.312500
187,70.312500
188,70.312500
189,70.312500
190,70.312500
191,74.218750
192,74.218750
193,74.218750
194,74.218750
195,74.218750
196,74.218750
197,74.218750
198,74.218750
199,74.218750
200,78.125000
201,78.125000
202,78.125000
203,78.125000
204,78.125000
205,78.125000
206,78.125000
207,78.125000
208,82.031250
209,82.031250
210,82.031250
211,82.031250
212,82.031250
213,82.031250
214,82.031250
215,85.937500
216,85.937500
217,85.937500
218,85.937500
219,85.937500
220,85.937500
221,85.937500
222,85.937500
223,85.937500
224,85.937500
225,85.937500
226,89.843750
227,89.843750
228,89.843750
229,89.843750
230,89.843750
231,89.843750
232,89.843750
233,89.843750
234,89.843750
235,89.843750
236,89.843750
237,89.843750
238,93.750000
239,93.750000
240,93.750000
241,93.750000
242,93.750000
243,93.750000
244,93.750000
245,93.750000
246,97.656250
247,93.750000
248,93.750000
249,93.750000
250,97.656250
251,97.656250
252,97.656250
253,97.656250
254,97.656250
255,97.656250
256,97.656250
257,97.656250
258,97.656250
259,97.656250
260,97.656250
261,97.656250
262,101.562500
263,101.562500
264,101.562500
265,101.562500
266,101.562500
267,101.562500
268,101.562500
269,101.562500
270,101.562500
271,101.562500
272,101.562500
273,101.562500
274,101.562500
275,101.562500
276,101.562500
277,101.562500
278,105.468750
279,105.468750
280,105.468750
281,105.468750
282,105.468750
283,105.468750
284,105.468750
285,105.468750
286,105.468750
287,105.468750
288,105.468750
289,105.468750
290,105.468750
291,105.468750
292,105.468750
293,105.468750
294,109.375000
295,105.468750
296,109.375000
297,109.375000
298,105.468750
299,109.375000
300,109.375000
301,109.375000
302,109.375000
303,109.375000
304,109.375000
305,109.375000
306,109.375000
307,109.375000
308,109.375000
309,109.375000
310,109.375000
311,109.375000
312,109.375000
313,109.375000
314,109.375000
315,109.375000
316,109.375000
317,109.375000
318,109.375000
319,109.375000
320,109.375000
321,109.375000
322,109.375000
323,109.375000
324,109.375000
325,109.375000
326,109.375000
327,109.375000
328,109.375000
329,109.375000
330,109.375000
331,109.375000
332,109.375000
333,109.375000
334,109.375000
335,109.375000
336,109.375000
337,109.375000
338,109.375000
339,109.375000
340,109.375000
341,109.375000
342,109.375000
343,109.375000
344,109.375000
345,109.375000
346,109.375000
347,109.375000
348,109.375000
349,109.375000
350,105.468750
351,105.468750
352,105.468750
353,105.468750
354,105.468750
355,105.468750
356,109.375000
357,105.468750
358,105.468750
359,105.468750
360,105.468750
361,105.468750
362,105.468750
363,105.468750
364,105.468750
365,105.468750
366,105.468750
367,105.468750
368,105.468750
369,105.468750
370,105.468750
371,105.468750
372,105.468750
373,105.468750
374,105.468750
375,101.562500
376,105.468750
377,105.468750
378,105.468750
379,101.562500
380,101.562500
381,101.562500
382,101.562500
383,101.562500
384,101.562500
385,101.562500
386,101.562500
387,101.562500
388,101.562500
389,101.562500
390,101.562500
391,101.562500
392,101.562500
393,101.562500
394,97.656250
395,97.656250
396,97.656250
397,97.656250
398,97.656250
399,97.656250
400,97.656250
401,97.656250
402,97.656250
403,97.656250
404,97.656250
405,97.656250
406,97.656250
407,93.750000
408,93.750000
409,93.750000
410,93.750000
411,93.750000
412,93.750000
413,93.750000
414,93.750000
415,93.750000
416,93.750000
417,93.750000
418,93.750000
419,89.843750
420,89.843750
421,89.843750
422,89.843750
423,89.843750
424,89.843750
425,89.843750
426,89.843750
427,89.843750
428,85.937500
429,85.937500
430,85.937500
431,85.937500
432,85.937500
433,85.937500
434,85.937500
435,85.937500
436,85.937500
437,82.031250
438,85.937500
439,82.031250
440,82.031250
441,82.031250
442,82.031250
443,82.031250
444,82.031250
445,78.125000
446,78.125000
447,78.125000
448,78.125000
449,78.125000
450,78.125000
451,78.125000
452,74.218750
453,74.218750
454,78.125000
455,74.218750
456,74.218750
457,74.218750
458,74.218750
459,74.218750
460,70.312500
461,70.312500
462,70.312500
463,70.312500
464,70.312500
465,70.312500
466,70.312500
467,70.312500
468,66.406250
469,66.406250
470,66.406250
471,66.406250
472,66.406250
473,66.406250
474,66.406250
475,62.500000
476,62.500000
477,62.500000
478,62.500000
479,62.500000
480,58.593750
481,58.593750
482,58.593750
483,58.593750
484,58.593750
485,58.593750
486,54.687500
487,54.687500
488,54.687500
489,54.687500
490,54.687500
491,54.687500
492,54.687500
493,50.781250
494,50.781250
495,50.781250
496,50.781250
497,50.781250
498,50.781250
499,46.875000
500,46.875000
501,46.875000
502,46.875000
503,46.875000
504,42.968750
505,42.968750
506,42.968750
507,42.968750
508,42.968750
509,42.968750
510,42.968750
511,39.062500
512,39.062500
513,39.062500
514,39.062500
515,35.156250
516,35.156250
517,35.156250
518,35.156250
519,35.156250
520,35.156250
521,31.250000
522,31.250000
523,31.250000
524,31.250000
525,31.250000
526,27.343750
527,27.343750
528,27.343750
529,27.343750
530,27.343750
531,27.343750
532,23.437500
533,23.437500
534,23.437500
535,19.531250
536,19.531250
537,19.531250
538,19.531250
539,19.531250
540,19.531250
541,15.625000
542,15.625000
543,15.625000
544,15.625000
545,15.625000
546,15.625000
547,11.718750
548,11.718750
549,11.718750
550,11.718750
551,7.812500
552,7.812500
553,7.812500
554,7.812500
555,7.812500
556,3.906250
557,3.906250
558,3.906250
559,3.906250
560,3.906250
561,0.000000
562,0.000000
563,0.000000
564,0.000000
565,-3.906250
566,-3.906250
567,-3.906250
568,-3.906250
569,-3.906250
570,-7.812500
571,-7.812500
572,-7.812500
573,-7.812500
574,-11.718750
575,-11.718750
576,-11.718750
577,-11.718750
578,-15.625000
579,-15.625000
580,-15.625000
581,-15.625000
582,-15.625000
583,-19.531250
584,-19.531250
585,-19.531250
586,-19.531250
587,-19.531250
588,-23.437500
589,-23.437500
590,-23.437500
591,-23.437500
592,-23.437500
593,-27.343750
594,-27.343750
595,-27.343750
596,-27.343750
597,-31.250000
598,-31.250000
599,-35.156250
600,-31.250000
601,-31.250000
602,-35.156250
603,-35.156250
604,-35.156250
605,-39.062500
606,-39.062500
607,-39.062500
608,-39.062500
609,-39.062500
610,-39.062500
611,-42.968750
612,-42.968750
613,-42.968750
614,-42.968750
615,-46.875000
616,-46.875000
617,-46.875000
618,-46.875000
619,-50.781250
620,-50.781250
621,-50.781250
622,-50.781250
623,-54.687500
624,-54.687500
625,-54.687500
626,-54.687500
627,-54.687500
628,-58.593750
629,-58.593750
630,-58.593750
631,-58.593750
632,-58.593750
633,-62.500000
634,-62.500000
635,-62.500000
636,-62.500000
637,-62.500000
638,-66.406250
639,-66.406250
640,-66.406250
641,-66.406250
642,-66.406250
643,-70.312500
644,-70.312500
645,-70.312500
646,-70.312500
647,-74.218750
648,-74.218750
649,-74.218750
650,-74.218750
651,-74.218750
652,-74.218750
653,-78.125000
654,-78.125000
655,-78.125000
656,-78.125000
657,-82.031250
658,-82.031250
659,-82.031250
660,-82.031250
661,-82.031250
662,-82.031250
663,-85.937500
664,-85.937500
665,-85.937500
666,-85.937500
667,-89.843750
668,-89.843750
669,-89.843750
670,-89.843750
671,-89.843750
672,-89.843750
673,-89.843750
674,-93.750000
675,-93.750000
676,-93.750000
677,-93.750000
678,-93.750000
679,-97.656250
680,-97.656250
681,-97.656250
682,-97.656250
683,-97.656250
684,-97.656250
685,-101.562500
686,-101.562500
687,-101.562500
688,-101.562500
689,-105.468750
690,-105.468750
691,-105.468750
692,-105.468750
693,-105.468750
694,-105.468750
695,-109.375000
696,-109.375000
697,-109.375000
698,-109.375000
699,-109.375000
700,-109.375000
701,-109.375000
702,-113.281250
703,-113.281250
704,-113.281250
705,-113.281250
706,-113.281250
707,-113.281250
708,-117.187500
709,-117.187500
710,-117.187500
711,-117.187500
712,-117.187500
713,-117.187500
714,-121.093750
715,-121.093750
716,-121.093750
717,-121.093750
718,-121.093750
719,-121.093750
720,-121.093750
721,-125.000000
722,-125.000000
723,-125.000000
724,-125.000000
725,-125.000000
726,-125.000000
727,-125.000000
728,-128.906250
729,-128.906250
730,-128.906250
731,-128.906250
732,-128.906250
733,-128.906250
734,-128.906250
735,-128.906250
736,-132.812500
737,-132.812500
738,-132.812500
739,-132.812500
740,-132.812500
741,-132.812500
742,-132.812500
743,-136.718750
744,-132.812500
745,-136.718750
746,-136.718750
747,-136.718750
748,-136.718750
749,-136.718750
750,-136.718750
751,-136.718750
752,-136.718750
753,-136.718750
754,-136.718750
755,-136.718750
756,-140.625000
757,-140.625000
758,-140.625000
759,-140.625000
760,-140.625000
761,-140.625000
762,-140.625000
763,-140.625000
764,-140.625000
765,-140.625000
766,-144.531250
767,-144.531250
768,-144.531250
769,-144.531250
770,-144.531250
771,-144.531250
772,-144.531250
773,-140.625000
774,-144.531250
775,-144.531250
776,-144.531250
777,-144.531250
778,-144.531250
779,-144.531250
780,-144.531250
781,-144.531250
782,-144.531250
783,-148.437500
784,-148.437500
785,-148.437500
786,-148.437500
787,-148.437500
788,-148.437500
789,-148.437500
790,-148.437500
791,-148.437500
792,-148.437500
793,-148.437500
794,-148.437500
795,-148.437500
796,-148.437500
797,-148.437500
798,-148.437500
799,-148.437500
800,-148.437500
801,-148.437500
802,-148.437500
803,-148.437500
804,-148.437500
805,-148.437500
806,-148.437500
807,-148.437500
808,-148.437500
809,-148.437500
810,-148.437500
811,-148.437500
812,-148.437500
813,-148.437500
814,-148.437500
815,-148.437500
816,-152.343750
817,-148.437500
818,-148.437500
819,-148.437500
820,-148.437500
821,-148.437500
822,-148.437500
823,-148.437500
824,-148.437500
825,-148.437500
826,-148.437500
827,-148.437500
828,-148.437500
829,-148.437500
830,-148.437500
831,-148.437500
832,-148.437500
833,-148.437500
834,-148.437500
835,-148.437500
836,-148.437500
837,-148.437500
838,-148.437500
839,-148.437500
840,-148.437500
841,-148.437500
842,-148.437500
843,-148.437500
844,-148.437500
845,-148.437500
846,-148.437500
847,-144.531250
848,-148.437500
849,-148.437500
850,-144.531250
851,-144.531250
852,-144.531250
853,-144.531250
854,-144.531250
855,-144.531250
856,-144.531250
857,-144.531250
858,-144.531250
859,-144.531250
860,-140.625000
861,-144.531250
862,-144.531250
863,-144.531250
864,-140.625000
865,-140.625000
866,-140.625000
867,-144.531250
868,-144.531250
869,-140.625000
870,-140.625000
871,-140.625000
872,-140.625000
873,-140.625000
874,-140.625000
875,-140.625000
876,-140.625000
877,-140.625000
878,-136.718750
879,-136.718750
880,-136.718750
881,-136.718750
882,-136.718750
883,-136.718750
884,-136.718750
885,-136.718750
886,-136.718750
887,-136.718750
888,-132.812500
889,-136.718750
890,-132.812500
891,-132.812500
892,-132.812500
893,-132.812500
894,-132.812500
895,-132.812500
896,-132.812500
897,-128.906250
898,-128.906250
899,-128.906250
900,-128.906250
901,-128.906250
902,-128.906250
903,-128.906250
904,-128.906250
905,-125.000000
906,-125.000000
907,-125.000000
908,-125.000000
909,-125.000000
910,-125.000000
911,-121.093750
912,-121.093750
913,-121.093750
914,-121.093750
915,-121.093750
916,-121.093750
917,-121.093750
918,-121.093750
919,-121.093750
920,-117.187500
921,-117.187500
922,-117.187500
923,-117.187500
924,-117.187500
925,-117.187500
926,-113.281250
927,-113.281250
928,-113.281250
929,-113.281250
930,-109.375000
931,-109.375000
932,-109.375000
933,-109.375000
934,-109.375000
935,-109.375000
936,-109.375000
937,-109.375000
938,-105.468750
939,-105.468750
940,-105.468750
941,-105.468750
942,-105.468750
943,-101.562500
944,-101.562500
945,-101.562500
946,-101.562500
947,-101.562500
948,-101.562500
949,-97.656250
950,-97.656250
951,-97.656250
952,-97.656250
953,-97.656250
954,-93.750000
955,-93.750000
956,-93.750000
957,-93.750000
958,-93.750000
959,-93.750000
960,-89.843750
961,-93.750000
962,-89.843750
963,-89.843750
964,-89.843750
965,-89.843750
966,-85.937500
967,-85.937500
968,-85.937500
969,-85.937500
970,-85.937500
971,-82.031250
972,-82.031250
973,-82.031250
974,-82.031250
975,-82.031250
976,-82.031250
977,-78.125000
978,-78.125000
979,-78.125000
980,-78.125000
981,-74.218750
982,-74.218750
983,-74.218750
984,-74.218750
985,-74.218750
986,-74.218750
987,-70.312500
988,-70.312500
989,-70.312500
990,-70.312500
991,-70.312500
992,-66.406250
993,-66.406250
994,-66.406250
995,-66.406250
996,-66.406250
997,-66.406250
998,-62.500000
999,-62.500000
1000,-62.500000
1001,-62.500000
1002,-58.593750
1003,-58.593750
1004,-58.593750
1005,-58.593750
1006,-54.687500
1007,-54.687500
1008,-54.687500
1009,-54.687500
1010,-54.687500
1011,-54.687500
1012,-50.781250
1013,-50.781250
1014,-50.781250
1015,-50.781250
1016,-50.781250
1017,-46.875000
1018,-46.875000
1019,-46.875000
1020,-46.875000
1021,-46.875000
1022,-42.968750
1023,-42.968750
1024,-42.968750
1025,-42.968750
1026,-39.062500
1027,-39.062500
1028,-39.062500
1029,-39.062500
1030,-39.062500
1031,-35.156250
1032,-35.156250
1033,-35.156250
1034,-35.156250
1035,-35.156250
1036,-31.250000
1037,-31.250000
1038,-31.250000
1039,-31.250000
1040,-27.343750
1041,-27.343750
1042,-27.343750
1043,-27.343750
1044,-23.437500
1045,-23.437500
1046,-23.437500
1047,-23.437500
1048,-23.437500
1049,-19.531250
1050,-19.531250
1051,-19.531250
1052,-19.531250
1053,-19.531250
1054,-15.625000
1055,-15.625000
1056,-15.625000
1057,-15.625000
1058,-11.718750
1059,-11.718750
1060,-11.718750
1061,-11.718750
1062,-11.718750
1063,-7.812500
1064,-7.812500
1065,-7.812500
1066,-7.812500
1067,-7.812500
1068,-3.906250
1069,-3.906250
1070,-3.906250
1071,-3.906250
1072,0.000000
1073,0.000000
1074,0.000000
1075,0.000000
1076,0.000000
1077,3.906250
1078,3.906250
1079,3.906250
1080,3.906250
1081,3.906250
1082,7.812500
1083,7.812500
1084,7.812500
1085,7.812500
1086,7.812500
1087,11.718750
1088,11.718750
1089,11.718750
1090,11.718750
1091,11.718750
1092,11.718750
1093,11.718750
1094,15.625000
1095,15.625000
1096,15.625000
1097,15.625000
1098,19.531250
1099,19.531250
1100,19.531250
1101,19.531250
1102,19.531250
1103,23.437500
1104,23.437500
1105,23.437500
1106,23.437500
1107,23.437500
1108,27.343750
1109,27.343750
1110,27.343750
1111,27.343750
1112,31.250000
1113,31.250000
1114,31.250000
1115,31.250000
1116,31.250000
1117,31.250000
1118,31.250000
1119,31.250000
1120,35.156250
1121,35.156250
1122,35.156250
1123,35.156250
1124,39.062500
1125,39.062500
1126,39.062500
1127,39.062500
1128,39.062500
1129,39.062500
1130,42.968750
1131,42.968750
1132,42.968750
1133,42.968750
1134,42.968750
1135,42.968750
1136,46.875000
1137,46.875000
1138,46.875000
1139,46.875000
1140,46.875000
1141,46.875000
1142,50.781250
1143,50.781250
1144,50.781250
1145,50.781250
1146,50.781250
1147,50.781250
1148,54.687500
1149,54.687500
1150,54.687500
1151,54.687500
1152,54.687500
1153,54.687500
1154,58.593750
1155,58.593750
1156,58.593750
1157,58.593750
1158,58.593750
1159,58.593750
1160,62.500000
1161,62.500000
1162,62.500000
1163,62.500000
1164,62.500000
1165,62.500000
1166,62.500000
1167,62.500000
1168,66.406250
1169,66.406250
1170,66.406250
1171,66.406250
1172,66.406250
1173,70.312500
1174,70.312500
1175,70.312500
1176,70.312500
1177,70.312500
1178,70.312500
1179,70.312500
1180,70.312500
1181,74.218750
1182,74.218750
1183,74.218750
1184,74.218750
1185,74.218750
1186,74.218750
1187,74.218750
1188,78.125000
1189,78.125000
1190,78.125000
1191,78.125000
1192,78.125000
1193,78.125000
1194,78.125000
1195,78.125000
1196,82.031250
1197,82.031250
1198,82.031250
1199,82.031250
1200,82.031250
1201,82.031250
1202,82.031250
1203,82.031250
1204,85.937500
1205,82.031250
1206,85.937500
1207,85.937500
1208,85.937500
1209,85.937500
1210,85.937500
1211,85.937500
1212,85.937500
1213,85.937500
1214,89.843750
1215,89.843750
1216,89.843750
1217,89.843750
1218,89.843750
1219,89.843750
1220,89.843750
1221,89.843750
1222,89.843750
1223,89.843750
1224,89.843750
1225,93.750000
1226,93.750000
1227,93.750000
1228,93.750000
1229,93.750000
1230,93.750000
1231,93.750000
1232,93.750000
1233,93.750000
1234,93.750000
1235,97.656250
1236,97.656250
1237,97.656250
1238,97.656250
1239,97.656250
1240,97.656250
1241,97.656250
1242,97.656250
1243,97.656250
1244,97.656250
1245,97.656250
1246,97.656250
