Channel              :,CH1
Frequency            :,1.010kHz
Period               :,0.990ms
PK-PK                :,183.6mV
Probe attenuation    :,1X
Voltage per ADC value:,0.244141mV
Time interval        :,1.00000us

index,CH1_Voltage(mV)
1,-50.781250
2,-50.781250
3,-50.781250
4,-50.781250
5,-50.781250
6,-50.781250
7,-50.781250
8,-50.781250
9,-46.875000
10,-46.875000
11,-46.875000
12,-46.875000
13,-46.875000
14,-46.875000
15,-46.875000
16,-42.968750
17,-42.968750
18,-42.968750
19,-42.968750
20,-42.968750
21,-42.968750
22,-42.968750
23,-39.062500
24,-39.062500
25,-39.062500
26,-39.062500
27,-39.062500
28,-39.062500
29,-35.156250
30,-35.156250
31,-35.156250
32,-35.156250
33,-35.156250
34,-35.156250
35,-35.156250
36,-31.250000
37,-31.250000
38,-31.250000
39,-31.250000
40,-31.250000
41,-31.250000
42,-31.250000
43,-27.343750
44,-27.343750
45,-27.343750
46,-27.343750
47,-27.343750
48,-27.343750
49,-27.343750
50,-27.343750
51,-23.437500
52,-23.437500
53,-23.437500
54,-23.437500
55,-23.437500
56,-23.437500
57,-19.531250
58,-19.531250
59,-19.531250
60,-19.531250
61,-19.531250
62,-19.531250
63,-19.531250
64,-15.625000
65,-15.625000
66,-15.625000
67,-15.625000
68,-15.625000
69,-15.625000
70,-15.625000
71,-11.718750
72,-11.718750
73,-11.718750
74,-11.718750
75,-11.718750
76,-11.718750
77,-11.718750
78,-7.812500
79,-7.812500
80,-7.812500
81,-7.812500
82,-7.812500
83,-7.812500
84,-3.906250
85,-3.906250
86,-3.906250
87,-3.906250
88,-3.906250
89,-3.906250
90,-3.906250
91,0.000000
92,0.000000
93,0.000000
94,0.000000
95,0.000000
96,0.000000
97,0.000000
98,3.906250
99,3.906250
100,3.906250
101,3.906250
102,3.906250
103,3.906250
104,3.906250
105,3.906250
106,7.812500
107,7.812500
108,7.812500
109,7.812500
110,7.812500
111,7.812500
112,7.812500
113,7.812500
114,11.718750
115,11.718750
116,11.718750
117,11.718750
118,11.718750
119,11.718750
120,15.625000
121,15.625000
122,15.625000
123,15.625000
124,15.625000
125,15.625000
126,15.625000
127,15.625000
128,19.531250
129,19.531250
130,19.531250
131,19.531250
132,19.531250
133,19.531250
134,19.531250
135,19.531250
136,23.437500
137,23.437500
138,23.437500
139,23.437500
140,23.437500
141,23.437500
142,23.437500
143,23.437500
144,23.437500
145,27.343750
146,27.343750
147,27.343750
148,27.343750
149,27.343750
150,27.343750
151,27.343750
152,31.250000
153,31.250000
154,31.250000
155,31.250000
156,31.250000
157,31.250000
158,31.250000
159,31.250000
160,35.156250
161,35.156250
162,35.156250
163,35.156250
164,35.156250
165,35.156250
166,35.156250
167,35.156250
168,35.156250
169,39.062500
170,39.062500
171,39.062500
172,39.062500
173,39.062500
174,39.062500
175,39.062500
176,39.062500
177,39.062500
178,42.968750
179,42.968750
180,42.968750
181,42.968750
182,42.968750
183,42.968750
184,42.968750
185,42.968750
186,42.968750
187,42.968750
188,42.968750
189,42.968750
190,46.875000
191,46.875000
192,46.875000
193,46.875000
194,46.875000
195,46.875000
196,46.875000
197,46.875000
198,46.875000
199,46.875000
200,50.781250
201,50.781250
202,50.781250
203,50.781250
204,50.781250
205,50.781250
206,50.781250
207,50.781250
208,50.781250
209,54.687500
210,54.687500
211,50.781250
212,54.687500
213,54.687500
214,54.687500
215,54.687500
216,54.687500
217,54.687500
218,54.687500
219,54.687500
220,54.687500
221,54.687500
222,54.687500
223,58.593750
224,58.593750
225,58.593750
226,58.593750
227,58.593750
228,58.593750
229,58.593750
230,58.593750
231,58.593750
232,62.500000
233,58.593750
234,58.593750
235,58.593750
236,58.593750
237,58.593750
238,62.500000
239,62.500000
240,62.500000
241,62.500000
242,62.500000
243,62.500000
244,62.500000
245,62.500000
246,62.500000
247,62.500000
248,62.500000
249,62.500000
250,66.406250
251,62.500000
252,62.500000
253,62.500000
254,62.500000
255,66.406250
256,66.406250
257,66.406250
258,66.406250
259,66.406250
260,66.406250
261,66.406250
262,66.406250
263,66.406250
264,66.406250
265,66.406250
266,66.406250
267,66.406250
268,66.406250
269,66.406250
270,66.406250
271,66.406250
272,66.406250
273,70.312500
274,66.406250
275,66.406250
276,66.406250
277,70.312500
278,70.312500
279,70.312500
280,70.312500
281,70.312500
282,70.312500
283,70.312500
284,70.312500
285,70.312500
286,70.312500
287,70.312500
288,70.312500
289,70.312500
290,70.312500
291,70.312500
292,70.312500
293,70.312500
294,70.312500
295,70.312500
296,70.312500
297,70.312500
298,70.312500
299,70.312500
300,70.312500
301,70.312500
302,70.312500
303,70.312500
304,70.312500
305,70.312500
306,70.312500
307,70.312500
308,74.218750
309,70.312500
310,70.312500
311,74.218750
312,74.218750
313,70.312500
314,74.218750
315,70.312500
316,70.312500
317,70.312500
318,70.312500
319,74.218750
320,74.218750
321,74.218750
322,74.218750
323,70.312500
324,70.312500
325,74.218750
326,74.218750
327,74.218750
328,70.312500
329,74.218750
330,74.218750
331,70.312500
332,74.218750
333,74.218750
334,74.218750
335,74.218750
336,74.218750
337,74.218750
338,74.218750
339,70.312500
340,74.218750
341,70.312500
342,70.312500
343,70.312500
344,70.312500
345,70.312500
346,70.312500
347,70.312500
348,70.312500
349,70.312500
350,70.312500
351,70.312500
352,70.312500
353,70.312500
354,70.312500
355,70.312500
356,70.312500
357,70.312500
358,70.312500
359,70.312500
360,70.312500
361,70.312500
362,70.312500
363,70.312500
364,70.312500
365,70.312500
366,70.312500
367,70.312500
368,70.312500
369,70.312500
370,70.312500
371,70.312500
372,70.312500
373,70.312500
374,70.312500
375,70.312500
376,70.312500
377,66.406250
378,70.312500
379,70.312500
380,66.406250
381,66.406250
382,66.406250
383,66.406250
384,66.406250
385,66.406250
386,66.406250
387,66.406250
388,66.406250
389,66.406250
390,66.406250
391,66.406250
392,66.406250
393,66.406250
394,66.406250
395,66.406250
396,66.406250
397,62.500000
398,66.406250
399,62.500000
400,62.500000
401,62.500000
402,62.500000
403,62.500000
404,62.500000
405,62.500000
406,62.500000
407,62.500000
408,62.500000
409,62.500000
410,62.500000
411,62.500000
412,62.500000
413,62.500000
414,58.593750
415,58.593750
416,58.593750
417,58.593750
418,58.593750
419,58.593750
420,58.593750
421,58.593750
422,58.593750
423,58.593750
424,58.593750
425,58.593750
426,58.593750
427,58.593750
428,58.593750
429,58.593750
430,54.687500
431,54.687500
432,54.687500
433,54.687500
434,54.687500
435,54.687500
436,54.687500
437,54.687500
438,54.687500
439,54.687500
440,54.687500
441,54.687500
442,50.781250
443,50.781250
444,50.781250
445,50.781250
446,50.781250
447,50.781250
448,50.781250
449,50.781250
450,50.781250
451,50.781250
452,50.781250
453,50.781250
454,46.875000
455,46.875000
456,46.875000
457,46.875000
458,46.875000
459,46.875000
460,46.875000
461,46.875000
462,46.875000
463,42.968750
464,42.968750
465,42.968750
466,42.968750
467,42.968750
468,42.968750
469,42.968750
470,42.968750
471,42.968750
472,42.968750
473,39.062500
474,39.062500
475,39.062500
476,39.062500
477,39.062500
478,39.062500
479,39.062500
480,39.062500
481,39.062500
482,35.156250
483,35.156250
484,35.156250
485,35.156250
486,35.156250
487,35.156250
488,35.156250
489,35.156250
490,35.156250
491,35.156250
492,31.250000
493,35.156250
494,31.250000
495,31.250000
496,31.250000
497,31.250000
498,31.250000
499,31.250000
500,31.250000
501,31.250000
502,27.343750
503,27.343750
504,27.343750
505,27.343750
506,27.343750
507,27.343750
508,27.343750
509,23.437500
510,23.437500
511,23.437500
512,23.437500
513,23.437500
514,23.437500
515,23.437500
516,23.437500
517,19.531250
518,19.531250
519,19.531250
520,19.531250
521,19.531250
522,19.531250
523,19.531250
524,15.625000
525,15.625000
526,15.625000
527,15.625000
528,15.625000
529,15.625000
530,15.625000
531,15.625000
532,11.718750
533,11.718750
534,11.718750
535,11.718750
536,11.718750
537,11.718750
538,11.718750
539,11.718750
540,7.812500
541,7.812500
542,7.812500
543,7.812500
544,7.812500
545,3.906250
546,7.812500
547,3.906250
548,3.906250
549,3.906250
550,3.906250
551,3.906250
552,3.906250
553,3.906250
554,0.000000
555,0.000000
556,0.000000
557,0.000000
558,0.000000
559,0.000000
560,0.000000
561,0.000000
562,-3.906250
563,-3.906250
564,-3.906250
565,-3.906250
566,-3.906250
567,-3.906250
568,-7.812500
569,-7.812500
570,-7.812500
571,-7.812500
572,-7.812500
573,-7.812500
574,-7.812500
575,-11.718750
576,-11.718750
577,-11.718750
578,-11.718750
579,-11.718750
580,-11.718750
581,-15.625000
582,-15.625000
583,-15.625000
584,-15.625000
585,-15.625000
586,-15.625000
587,-15.625000
588,-15.625000
589,-19.531250
590,-19.531250
591,-19.531250
592,-19.531250
593,-19.531250
594,-19.531250
595,-23.437500
596,-23.437500
597,-23.437500
598,-23.437500
599,-23.437500
600,-23.437500
601,-23.437500
602,-27.343750
603,-27.343750
604,-27.343750
605,-27.343750
606,-27.343750
607,-27.343750
608,-27.343750
609,-27.343750
610,-31.250000
611,-31.250000
612,-31.250000
613,-31.250000
614,-31.250000
615,-35.156250
616,-35.156250
617,-35.156250
618,-35.156250
619,-35.156250
620,-35.156250
621,-35.156250
622,-39.062500
623,-39.062500
624,-39.062500
625,-39.062500
626,-39.062500
627,-39.062500
628,-39.062500
629,-39.062500
630,-42.968750
631,-42.968750
632,-42.968750
633,-42.968750
634,-42.968750
635,-42.968750
636,-46.875000
637,-46.875000
638,-46.875000
639,-46.875000
640,-46.875000
641,-46.875000
642,-46.875000
643,-46.875000
644,-50.781250
645,-50.781250
646,-50.781250
647,-50.781250
648,-50.781250
649,-50.781250
650,-50.781250
651,-50.781250
652,-54.687500
653,-54.687500
654,-54.687500
655,-54.687500
656,-54.687500
657,-54.687500
658,-54.687500
659,-58.593750
660,-58.593750
661,-58.593750
662,-58.593750
663,-58.593750
664,-58.593750
665,-58.593750
666,-62.500000
667,-58.593750
668,-62.500000
669,-62.500000
670,-62.500000
671,-62.500000
672,-62.500000
673,-66.406250
674,-62.500000
675,-66.406250
676,-66.406250
677,-66.406250
678,-66.406250
679,-66.406250
680,-66.406250
681,-66.406250
682,-66.406250
683,-70.312500
684,-70.312500
685,-70.312500
686,-70.312500
687,-70.312500
688,-70.312500
689,-70.312500
690,-70.312500
691,-74.218750
692,-74.218750
693,-74.218750
694,-74.218750
695,-74.218750
696,-74.218750
697,-74.218750
698,-74.218750
699,-78.125000
700,-78.125000
701,-78.125000
702,-78.125000
703,-78.125000
704,-78.125000
705,-78.125000
706,-78.125000
707,-78.125000
708,-78.125000
709,-78.125000
710,-82.031250
711,-82.031250
712,-82.031250
713,-82.031250
714,-82.031250
715,-82.031250
716,-82.031250
717,-82.031250
718,-82.031250
719,-82.031250
720,-82.031250
721,-85.937500
722,-85.937500
723,-85.937500
724,-85.937500
725,-85.937500
726,-85.937500
727,-85.937500
728,-85.937500
729,-85.937500
730,-89.843750
731,-85.937500
732,-85.937500
733,-89.843750
734,-89.843750
735,-89.843750
736,-89.843750
737,-89.843750
738,-89.843750
739,-89.843750
740,-89.843750
741,-89.843750
742,-89.843750
743,-93.750000
744,-93.750000
745,-93.750000
746,-93.750000
747,-93.750000
748,-93.750000
749,-93.750000
750,-93.750000
751,-93.750000
752,-93.750000
753,-93.750000
754,-93.750000
755,-93.750000
756,-93.750000
757,-97.656250
758,-97.656250
759,-97.656250
760,-97.656250
761,-97.656250
762,-97.656250
763,-97.656250
764,-97.656250
765,-97.656250
766,-97.656250
767,-97.656250
768,-97.656250
769,-97.656250
770,-97.656250
771,-97.656250
772,-97.656250
773,-97.656250
774,-97.656250
775,-97.656250
776,-97.656250
777,-97.656250
778,-101.562500
779,-101.562500
780,-101.562500
781,-101.562500
782,-101.562500
783,-101.562500
784,-101.562500
785,-101.562500
786,-101.562500
787,-101.562500
788,-101.562500
789,-101.562500
790,-101.562500
791,-101.562500
792,-101.562500
793,-101.562500
794,-101.562500
795,-101.562500
796,-101.562500
797,-101.562500
798,-101.562500
799,-101.562500
800,-101.562500
801,-101.562500
802,-101.562500
803,-101.562500
804,-105.468750
805,-101.562500
806,-101.562500
807,-101.562500
808,-101.562500
809,-101.562500
810,-101.562500
811,-101.562500
812,-105.468750
813,-101.562500
814,-101.562500
815,-101.562500
816,-105.468750
817,-101.562500
818,-105.468750
819,-101.562500
820,-101.562500
821,-105.468750
822,-105.468750
823,-105.468750
824,-101.562500
825,-101.562500
826,-101.562500
827,-105.468750
828,-105.468750
829,-101.562500
830,-101.562500
831,-101.562500
832,-101.562500
833,-101.562500
834,-101.562500
835,-105.468750
836,-101.562500
837,-101.562500
838,-101.562500
839,-101.562500
840,-101.562500
841,-101.562500
842,-101.562500
843,-101.562500
844,-101.562500
845,-101.562500
846,-101.562500
847,-101.562500
848,-101.562500
849,-101.562500
850,-101.562500
851,-101.562500
852,-101.562500
853,-101.562500
854,-101.562500
855,-101.562500
856,-101.562500
857,-101.562500
858,-101.562500
859,-101.562500
860,-101.562500
861,-101.562500
862,-97.656250
863,-97.656250
864,-97.656250
865,-97.656250
866,-97.656250
867,-101.562500
868,-97.656250
869,-97.656250
870,-97.656250
871,-97.656250
872,-97.656250
873,-97.656250
874,-97.656250
875,-97.656250
876,-97.656250
877,-97.656250
878,-97.656250
879,-93.750000
880,-97.656250
881,-97.656250
882,-97.656250
883,-97.656250
884,-93.750000
885,-93.750000
886,-93.750000
887,-93.750000
888,-93.750000
889,-93.750000
890,-93.750000
891,-93.750000
892,-93.750000
893,-93.750000
894,-93.750000
895,-93.750000
896,-93.750000
897,-93.750000
898,-93.750000
899,-89.843750
900,-89.843750
901,-89.843750
902,-89.843750
903,-89.843750
904,-89.843750
905,-89.843750
906,-89.843750
907,-89.843750
908,-89.843750
909,-89.843750
910,-85.937500
911,-85.937500
912,-85.937500
913,-85.937500
914,-85.937500
915,-85.937500
916,-85.937500
917,-85.937500
918,-85.937500
919,-85.937500
920,-85.937500
921,-82.031250
922,-82.031250
923,-82.031250
924,-82.031250
925,-82.031250
926,-82.031250
927,-82.031250
928,-82.031250
929,-82.031250
930,-82.031250
931,-82.031250
932,-78.125000
933,-78.125000
934,-78.125000
935,-78.125000
936,-78.125000
937,-78.125000
938,-78.125000
939,-78.125000
940,-78.125000
941,-74.218750
942,-74.218750
943,-74.218750
944,-74.218750
945,-74.218750
946,-74.218750
947,-74.218750
948,-74.218750
949,-70.312500
950,-70.312500
951,-70.312500
952,-70.312500
953,-70.312500
954,-70.312500
955,-70.312500
956,-70.312500
957,-70.312500
958,-66.406250
959,-66.406250
960,-66.406250
961,-66.406250
962,-66.406250
963,-66.406250
964,-66.406250
965,-66.406250
966,-66.406250
967,-66.406250
968,-62.500000
969,-62.500000
970,-62.500000
971,-62.500000
972,-62.500000
973,-62.500000
974,-62.500000
975,-58.593750
976,-58.593750
977,-58.593750
978,-58.593750
979,-58.593750
980,-58.593750
981,-54.687500
982,-58.593750
983,-54.687500
984,-54.687500
985,-54.687500
986,-54.687500
987,-54.687500
988,-54.687500
989,-54.687500
990,-54.687500
991,-50.781250
992,-50.781250
993,-50.781250
994,-50.781250
995,-50.781250
996,-50.781250
997,-46.875000
998,-46.875000
999,-46.875000
1000,-46.875000
1001,-46.875000
1002,-46.875000
1003,-46.875000
1004,-46.875000
1005,-42.968750
1006,-42.968750
1007,-42.968750
1008,-42.968750
1009,-42.968750
1010,-42.968750
1011,-42.968750
1012,-39.062500
1013,-39.062500
1014,-39.062500
1015,-39.062500
1016,-39.062500
1017,-39.062500
1018,-39.062500
1019,-35.156250
1020,-35.156250
1021,-35.156250
1022,-35.156250
1023,-35.156250
1024,-35.156250
1025,-35.156250
1026,-35.156250
1027,-31.250000
1028,-31.250000
1029,-31.250000
1030,-31.250000
1031,-31.250000
1032,-31.250000
1033,-27.343750
1034,-27.343750
1035,-27.343750
1036,-27.343750
1037,-27.343750
1038,-27.343750
1039,-23.437500
1040,-23.437500
1041,-23.437500
1042,-23.437500
1043,-23.437500
1044,-23.437500
1045,-23.437500
1046,-23.437500
1047,-19.531250
1048,-19.531250
1049,-19.531250
1050,-19.531250
1051,-19.531250
1052,-19.531250
1053,-19.531250
1054,-15.625000
1055,-15.625000
1056,-15.625000
1057,-15.625000
1058,-15.625000
1059,-15.625000
1060,-15.625000
1061,-11.718750
1062,-11.718750
1063,-11.718750
1064,-11.718750
1065,-11.718750
1066,-11.718750
1067,-7.812500
1068,-7.812500
1069,-7.812500
1070,-7.812500
1071,-7.812500
1072,-7.812500
1073,-7.812500
1074,-7.812500
1075,-3.906250
1076,-3.906250
1077,-3.906250
1078,-3.906250
1079,-3.906250
1080,-3.906250
1081,-3.906250
1082,0.000000
1083,0.000000
1084,0.000000
1085,0.000000
1086,0.000000
1087,0.000000
1088,0.000000
1089,0.000000
1090,3.906250
1091,3.906250
1092,3.906250
1093,3.906250
1094,3.906250
1095,3.906250
1096,7.812500
1097,7.812500
1098,7.812500
1099,7.812500
1100,7.812500
1101,7.812500
1102,7.812500
1103,11.718750
1104,11.718750
1105,11.718750
1106,11.718750
1107,11.718750
1108,11.718750
1109,11.718750
1110,11.718750
1111,15.625000
1112,15.625000
1113,15.625000
1114,15.625000
1115,15.625000
1116,15.625000
1117,15.625000
1118,15.625000
1119,15.625000
1120,19.531250
1121,19.531250
1122,19.531250
1123,19.531250
1124,19.531250
1125,19.531250
1126,19.531250
1127,23.437500
1128,23.437500
1129,23.437500
1130,23.437500
1131,23.437500
1132,23.437500
1133,23.437500
1134,27.343750
1135,27.343750
1136,27.343750
1137,27.343750
1138,27.343750
1139,27.343750
1140,27.343750
1141,27.343750
1142,27.343750
1143,27.343750
1144,31.250000
1145,31.250000
1146,31.250000
1147,31.250000
1148,31.250000
1149,31.250000
1150,31.250000
1151,35.156250
1152,35.156250
1153,35.156250
1154,35.156250
1155,35.156250
1156,35.156250
1157,35.156250
1158,39.062500
1159,39.062500
1160,39.062500
1161,39.062500
1162,39.062500
1163,39.062500
1164,39.062500
1165,39.062500
1166,39.062500
1167,39.062500
1168,42.968750
1169,42.968750
1170,42.968750
1171,42.968750
1172,42.968750
1173,42.968750
1174,42.968750
1175,42.968750
1176,42.968750
1177,42.968750
1178,42.968750
1179,46.875000
1180,46.875000
1181,46.875000
1182,46.875000
1183,46.875000
1184,46.875000
1185,46.875000
1186,46.875000
1187,46.875000
1188,46.875000
1189,46.875000
1190,50.781250
1191,50.781250
1192,50.781250
1193,50.781250
1194,50.781250
1195,50.781250
1196,50.781250
1197,50.781250
1198,50.781250
1199,50.781250
1200,50.781250
1201,54.687500
1202,54.687500
1203,54.687500
1204,54.687500
1205,54.687500
1206,54.687500
1207,54.687500
1208,54.687500
1209,54.687500
1210,54.687500
1211,54.687500
1212,54.687500
1213,58.593750
1214,58.593750
1215,58.593750
1216,58.593750
1217,58.593750
1218,58.593750
1219,58.593750
1220,58.593750
1221,58.593750
1222,58.593750
1223,58.593750
1224,58.593750
1225,62.500000
1226,62.500000
1227,62.500000
1228,62.500000
1229,62.500000
1230,62.500000
1231,62.500000
1232,62.500000
1233,62.500000
1234,62.500000
1235,62.500000
1236,62.500000
1237,62.500000
1238,62.500000
1239,62.500000
1240,62.500000
1241,62.500000
1242,62.500000
1243,62.500000
1244,66.406250
1245,66.406250
1246,66.406250
1247,66.406250
1248,66.406250
1249,66.406250
1250,66.406250
1251,66.406250
1252,66.406250
1253,66.406250
1254,66.406250
1255,66.406250
1256,66.406250
1257,66.406250
1258,66.406250
1259,66.406250
1260,66.406250
1261,66.406250
1262,66.406250
1263,70.312500
1264,70.312500
1265,70.312500
1266,70.312500
1267,70.312500
