Channel              :,CH1
Frequency            :,1.010kHz
Period               :,0.990ms
PK-PK                :,300.8mV
Probe attenuation    :,1X
Voltage per ADC value:,0.244141mV
Time interval        :,1.00000us

index,CH1_Voltage(mV)
1,-70.312500
2,-70.312500
3,-70.312500
4,-70.312500
5,-70.312500
6,-70.312500
7,-66.406250
8,-66.406250
9,-66.406250
10,-66.406250
11,-62.500000
12,-62.500000
13,-62.500000
14,-62.500000
15,-58.593750
16,-58.593750
17,-58.593750
18,-58.593750
19,-54.687500
20,-54.687500
21,-54.687500
22,-54.687500
23,-50.781250
24,-50.781250
25,-50.781250
26,-50.781250
27,-46.875000
28,-46.875000
29,-46.875000
30,-46.875000
31,-42.968750
32,-42.968750
33,-42.968750
34,-42.968750
35,-39.062500
36,-39.062500
37,-39.062500
38,-35.156250
39,-35.156250
40,-35.156250
41,-35.156250
42,-35.156250
43,-31.250000
44,-31.250000
45,-31.250000
46,-31.250000
47,-27.343750
48,-27.343750
49,-27.343750
50,-23.437500
51,-23.437500
52,-23.437500
53,-23.437500
54,-23.437500
55,-19.531250
56,-19.531250
57,-19.531250
58,-15.625000
59,-15.625000
60,-15.625000
61,-15.625000
62,-15.625000
63,-11.718750
64,-11.718750
65,-11.718750
66,-7.812500
67,-7.812500
68,-7.812500
69,-7.812500
70,-7.812500
71,-3.906250
72,-3.906250
73,-3.906250
74,-3.906250
75,0.000000
76,0.000000
77,0.000000
78,0.000000
79,3.906250
80,3.906250
81,3.906250
82,7.812500
83,7.812500
84,7.812500
85,7.812500
86,7.812500
87,7.812500
88,11.718750
89,11.718750
90,11.718750
91,11.718750
92,15.625000
93,15.625000
94,15.625000
95,15.625000
96,19.531250
97,19.531250
98,19.531250
99,19.531250
100,23.437500
101,23.437500
102,23.437500
103,23.437500
104,23.437500
105,27.343750
106,27.343750
107,27.343750
108,27.343750
109,31.250000
110,31.250000
111,31.250000
112,31.250000
113,31.250000
114,35.156250
115,35.156250
116,35.156250
117,35.156250
118,39.062500
119,39.062500
120,39.062500
121,39.062500
122,42.968750
123,42.968750
124,42.968750
125,42.968750
126,42.968750
127,46.875000
128,46.875000
129,46.875000
130,46.875000
131,46.875000
132,50.781250
133,50.781250
134,50.781250
135,50.781250
136,54.687500
137,54.687500
138,54.687500
139,54.687500
140,54.687500
141,54.687500
142,58.593750
143,58.593750
144,58.593750
145,58.593750
146,58.593750
147,62.500000
148,62.500000
149,62.500000
150,62.500000
151,62.500000
152,66.406250
153,66.406250
154,66.406250
155,66.406250
156,66.406250
157,66.406250
158,70.312500
159,70.312500
160,70.312500
161,70.312500
162,74.218750
163,74.218750
164,74.218750
165,74.218750
166,74.218750
167,74.218750
168,78.125000
169,78.125000
170,78.125000
171,78.125000
172,78.125000
173,82.031250
174,78.125000
175,82.031250
176,82.031250
177,82.031250
178,82.031250
179,82.031250
180,85.937500
181,85.937500
182,85.937500
183,85.937500
184,85.937500
185,85.937500
186,89.843750
187,89.843750
188,89.843750
189,89.843750
190,89.843750
191,89.843750
192,89.843750
193,93.750000
194,93.750000
195,93.750000
196,93.750000
197,93.750000
198,93.750000
199,93.750000
200,97.656250
201,97.656250
202,97.656250
203,97.656250
204,97.656250
205,97.656250
206,97.656250
207,101.562500
208,101.562500
209,101.562500
210,101.562500
211,101.562500
212,101.562500
213,101.562500
214,101.562500
215,105.468750
216,105.468750
217,105.468750
218,105.468750
219,105.468750
220,105.468750
221,105.468750
222,105.468750
223,109.375000
224,109.375000
225,109.375000
226,109.375000
227,109.375000
228,109.375000
229,109.375000
230,109.375000
231,109.375000
232,113.281250
233,109.375000
234,113.281250
235,113.281250
236,113.281250
237,113.281250
238,113.281250
239,113.281250
240,113.281250
241,113.281250
242,117.187500
243,113.281250
244,113.281250
245,117.187500
246,117.187500
247,117.187500
248,117.187500
249,117.187500
250,117.187500
251,117.187500
252,117.187500
253,117.187500
254,117.187500
255,121.093750
256,117.187500
257,121.093750
258,121.093750
259,121.093750
260,121.093750
261,121.093750
262,121.093750
263,121.093750
264,121.093750
265,121.093750
266,121.093750
267,121.093750
268,121.093750
269,121.093750
270,121.093750
271,121.093750
272,121.093750
273,125.000000
274,125.000000
275,125.000000
276,125.000000
277,125.000000
278,125.000000
279,125.000000
280,125.000000
281,125.000000
282,125.000000
283,125.000000
284,125.000000
285,125.000000
286,125.000000
287,125.000000
288,125.000000
289,125.000000
290,125.000000
291,125.000000
292,128.906250
293,128.906250
294,128.906250
295,128.906250
296,128.906250
297,125.000000
298,128.906250
299,125.000000
300,128.906250
301,128.906250
302,128.906250
303,128.906250
304,128.906250
305,128.906250
306,128.906250
307,128.906250
308,128.906250
309,128.906250
310,128.906250
311,128.906250
312,128.906250
313,128.906250
314,128.906250
315,128.906250
316,128.906250
317,128.906250
318,128.906250
319,128.906250
320,128.906250
321,128.906250
322,128.906250
323,128.906250
324,128.906250
325,128.906250
326,128.906250
327,128.906250
328,128.906250
329,128.906250
330,128.906250
331,128.906250
332,128.906250
333,128.906250
334,128.906250
335,128.906250
336,128.906250
337,128.906250
338,128.906250
339,128.906250
340,128.906250
341,125.000000
342,128.906250
343,128.906250
344,128.906250
345,125.000000
346,125.000000
347,125.000000
348,125.000000
349,125.000000
350,125.000000
351,125.000000
352,125.000000
353,125.000000
354,125.000000
355,125.000000
356,125.000000
357,125.000000
358,125.000000
359,125.000000
360,125.000000
361,125.000000
362,125.000000
363,125.000000
364,121.093750
365,125.000000
366,125.000000
367,125.000000
368,125.000000
369,121.093750
370,121.093750
371,121.093750
372,121.093750
373,121.093750
374,121.093750
375,121.093750
376,121.093750
377,121.093750
378,121.093750
379,121.093750
380,121.093750
381,121.093750
382,121.093750
383,117.187500
384,117.187500
385,117.187500
386,117.187500
387,117.187500
388,117.187500
389,117.187500
390,117.187500
391,117.187500
392,117.187500
393,113.281250
394,113.281250
395,113.281250
396,113.281250
397,113.281250
398,113.281250
399,113.281250
400,113.281250
401,113.281250
402,113.281250
403,113.281250
404,113.281250
405,109.375000
406,109.375000
407,109.375000
408,109.375000
409,109.375000
410,109.375000
411,109.375000
412,109.375000
413,105.468750
414,105.468750
415,105.468750
416,105.468750
417,105.468750
418,105.468750
419,105.468750
420,105.468750
421,105.468750
422,101.562500
423,101.562500
424,101.562500
425,101.562500
426,101.562500
427,101.562500
428,101.562500
429,101.562500
430,101.562500
431,97.656250
432,97.656250
433,97.656250
434,97.656250
435,97.656250
436,97.656250
437,97.656250
438,93.750000
439,93.750000
440,93.750000
441,93.750000
442,93.750000
443,93.750000
444,89.843750
445,89.843750
446,89.843750
447,89.843750
448,89.843750
449,89.843750
450,89.843750
451,85.937500
452,85.937500
453,85.937500
454,85.937500
455,85.937500
456,85.937500
457,82.031250
458,82.031250
459,82.031250
460,82.031250
461,82.031250
462,82.031250
463,82.031250
464,78.125000
465,78.125000
466,78.125000
467,78.125000
468,78.125000
469,74.218750
470,74.218750
471,74.218750
472,74.218750
473,74.218750
474,70.312500
475,70.312500
476,70.312500
477,70.312500
478,70.312500
479,66.406250
480,66.406250
481,66.406250
482,66.406250
483,66.406250
484,66.406250
485,62.500000
486,62.500000
487,62.500000
488,62.500000
489,62.500000
490,58.593750
491,58.593750
492,58.593750
493,58.593750
494,54.687500
495,54.687500
496,54.687500
497,54.687500
498,54.687500
499,54.687500
500,50.781250
501,50.781250
502,50.781250
503,50.781250
504,50.781250
505,46.875000
506,46.875000
507,46.875000
508,46.875000
509,42.968750
510,42.968750
511,42.968750
512,42.968750
513,42.968750
514,39.062500
515,39.062500
516,39.062500
517,35.156250
518,35.156250
519,35.156250
520,35.156250
521,35.156250
522,35.156250
523,31.250000
524,31.250000
525,31.250000
526,31.250000
527,27.343750
528,27.343750
529,27.343750
530,27.343750
531,23.437500
532,23.437500
533,23.437500
534,23.437500
535,23.437500
536,19.531250
537,19.531250
538,19.531250
539,15.625000
540,15.625000
541,15.625000
542,15.625000
543,15.625000
544,11.718750
545,11.718750
546,11.718750
547,11.718750
548,7.812500
549,7.812500
550,7.812500
551,7.812500
552,7.812500
553,3.906250
554,3.906250
555,3.906250
556,0.000000
557,0.000000
558,0.000000
559,0.000000
560,-3.906250
561,-3.906250
562,-3.906250
563,-3.906250
564,-7.812500
565,-7.812500
566,-7.812500
567,-7.812500
568,-11.718750
569,-11.718750
570,-11.718750
571,-11.718750
572,-15.625000
573,-15.625000
574,-15.625000
575,-15.625000
576,-15.625000
577,-19.531250
578,-19.531250
579,-19.531250
580,-23.437500
581,-23.437500
582,-23.437500
583,-23.437500
584,-23.437500
585,-27.343750
586,-27.343750
587,-27.343750
588,-31.250000
589,-31.250000
590,-31.250000
591,-31.250000
592,-35.156250
593,-35.156250
594,-35.156250
595,-35.156250
596,-39.062500
597,-39.062500
598,-39.062500
599,-39.062500
600,-42.968750
601,-42.968750
602,-42.968750
603,-42.968750
604,-46.875000
605,-46.875000
606,-46.875000
607,-50.781250
608,-50.781250
609,-50.781250
610,-50.781250
611,-50.781250
612,-54.687500
613,-54.687500
614,-54.687500
615,-54.687500
616,-58.593750
617,-58.593750
618,-58.593750
619,-58.593750
620,-62.500000
621,-62.500000
622,-62.500000
623,-66.406250
624,-66.406250
625,-66.406250
626,-66.406250
627,-66.406250
628,-70.312500
629,-70.312500
630,-70.312500
631,-70.312500
632,-74.218750
633,-74.218750
634,-74.218750
635,-74.218750
636,-78.125000
637,-78.125000
638,-78.125000
639,-78.125000
640,-82.031250
641,-82.031250
642,-82.031250
643,-82.031250
644,-85.937500
645,-85.937500
646,-85.937500
647,-85.937500
648,-85.937500
649,-89.843750
650,-89.843750
651,-89.843750
652,-89.843750
653,-93.750000
654,-93.750000
655,-93.750000
656,-93.750000
657,-97.656250
658,-97.656250
659,-97.656250
660,-97.656250
661,-97.656250
662,-101.562500
663,-101.562500
664,-101.562500
665,-101.562500
666,-105.468750
667,-105.468750
668,-105.468750
669,-105.468750
670,-105.468750
671,-109.375000
672,-109.375000
673,-109.375000
674,-109.375000
675,-109.375000
676,-113.281250
677,-113.281250
678,-113.281250
679,-113.281250
680,-113.281250
681,-117.187500
682,-117.187500
683,-117.187500
684,-117.187500
685,-121.093750
686,-121.093750
687,-121.093750
688,-121.093750
689,-121.093750
690,-121.093750
691,-125.000000
692,-125.000000
693,-125.000000
694,-125.000000
695,-125.000000
696,-128.906250
697,-128.906250
698,-128.906250
699,-128.906250
700,-128.906250
701,-132.812500
702,-132.812500
703,-132.812500
704,-132.812500
705,-132.812500
706,-132.812500
707,-132.812500
708,-136.718750
709,-136.718750
710,-136.718750
711,-136.718750
712,-136.718750
713,-140.625000
714,-140.625000
715,-140.625000
716,-140.625000
717,-140.625000
718,-140.625000
719,-144.531250
720,-144.531250
721,-144.531250
722,-144.531250
723,-144.531250
724,-144.531250
725,-144.531250
726,-148.437500
727,-148.437500
728,-148.437500
729,-148.437500
730,-148.437500
731,-148.437500
732,-148.437500
733,-148.437500
734,-152.343750
735,-152.343750
736,-152.343750
737,-152.343750
738,-152.343750
739,-152.343750
740,-152.343750
741,-156.250000
742,-156.250000
743,-156.250000
744,-156.250000
745,-156.250000
746,-156.250000
747,-156.250000
748,-156.250000
749,-160.156250
750,-156.250000
751,-160.156250
752,-160.156250
753,-160.156250
754,-160.156250
755,-160.156250
756,-160.156250
757,-160.156250
758,-160.156250
759,-164.062500
760,-164.062500
761,-164.062500
762,-164.062500
763,-164.062500
764,-164.062500
765,-164.062500
766,-164.062500
767,-164.062500
768,-164.062500
769,-164.062500
770,-164.062500
771,-167.968750
772,-167.968750
773,-167.968750
774,-167.968750
775,-167.968750
776,-167.968750
777,-167.968750
778,-167.968750
779,-167.968750
780,-167.968750
781,-167.968750
782,-167.968750
783,-167.968750
784,-167.968750
785,-167.968750
786,-167.968750
787,-171.875000
788,-167.968750
789,-167.968750
790,-167.968750
791,-167.968750
792,-167.968750
793,-171.875000
794,-171.875000
795,-167.968750
796,-171.875000
797,-171.875000
798,-171.875000
799,-171.875000
800,-171.875000
801,-171.875000
802,-171.875000
803,-171.875000
804,-171.875000
805,-171.875000
806,-171.875000
807,-171.875000
808,-171.875000
809,-171.875000
810,-171.875000
811,-171.875000
812,-171.875000
813,-171.875000
814,-171.875000
815,-171.875000
816,-171.875000
817,-171.875000
818,-171.875000
819,-171.875000
820,-171.875000
821,-171.875000
822,-171.875000
823,-171.875000
824,-171.875000
825,-171.875000
826,-171.875000
827,-171.875000
828,-171.875000
829,-171.875000
830,-171.875000
831,-171.875000
832,-167.968750
833,-167.968750
834,-167.968750
835,-167.968750
836,-167.968750
837,-167.968750
838,-167.968750
839,-167.968750
840,-167.968750
841,-167.968750
842,-167.968750
843,-167.968750
844,-167.968750
845,-167.968750
846,-167.968750
847,-167.968750
848,-167.968750
849,-167.968750
850,-164.062500
851,-167.968750
852,-164.062500
853,-164.062500
854,-164.062500
855,-164.062500
856,-164.062500
857,-164.062500
858,-164.062500
859,-164.062500
860,-164.062500
861,-164.062500
862,-160.156250
863,-164.062500
864,-160.156250
865,-160.156250
866,-160.156250
867,-160.156250
868,-160.156250
869,-160.156250
870,-160.156250
871,-160.156250
872,-160.156250
873,-156.250000
874,-156.250000
875,-156.250000
876,-156.250000
877,-156.250000
878,-156.250000
879,-156.250000
880,-152.343750
881,-156.250000
882,-152.343750
883,-152.343750
884,-152.343750
885,-152.343750
886,-152.343750
887,-152.343750
888,-152.343750
889,-152.343750
890,-152.343750
891,-148.437500
892,-148.437500
893,-148.437500
894,-148.437500
895,-148.437500
896,-148.437500
897,-144.531250
898,-144.531250
899,-144.531250
900,-144.531250
901,-144.531250
902,-144.531250
903,-144.531250
904,-140.625000
905,-140.625000
906,-140.625000
907,-140.625000
908,-140.625000
909,-140.625000
910,-136.718750
911,-136.718750
912,-136.718750
913,-136.718750
914,-136.718750
915,-136.718750
916,-136.718750
917,-132.812500
918,-132.812500
919,-132.812500
920,-132.812500
921,-132.812500
922,-128.906250
923,-128.906250
924,-128.906250
925,-128.906250
926,-128.906250
927,-125.000000
928,-125.000000
929,-125.000000
930,-125.000000
931,-125.000000
932,-121.093750
933,-121.093750
934,-121.093750
935,-121.093750
936,-121.093750
937,-117.187500
938,-117.187500
939,-117.187500
940,-117.187500
941,-117.187500
942,-117.187500
943,-113.281250
944,-113.281250
945,-113.281250
946,-113.281250
947,-109.375000
948,-109.375000
949,-109.375000
950,-109.375000
951,-109.375000
952,-105.468750
953,-105.468750
954,-105.468750
955,-105.468750
956,-105.468750
957,-101.562500
958,-101.562500
959,-101.562500
960,-101.562500
961,-97.656250
962,-97.656250
963,-97.656250
964,-97.656250
965,-93.750000
966,-93.750000
967,-93.750000
968,-93.750000
969,-93.750000
970,-89.843750
971,-89.843750
972,-89.843750
973,-89.843750
974,-85.937500
975,-85.937500
976,-85.937500
977,-85.937500
978,-82.031250
979,-82.031250
980,-82.031250
981,-82.031250
982,-82.031250
983,-78.125000
984,-78.125000
985,-78.125000
986,-78.125000
987,-78.125000
988,-74.218750
989,-74.218750
990,-74.218750
991,-74.218750
992,-70.312500
993,-70.312500
994,-70.312500
995,-70.312500
996,-66.406250
997,-66.406250
998,-66.406250
999,-62.500000
1000,-62.500000
1001,-62.500000
1002,-62.500000
1003,-62.500000
1004,-58.593750
1005,-58.593750
1006,-58.593750
1007,-58.593750
1008,-54.687500
1009,-54.687500
1010,-54.687500
1011,-54.687500
1012,-50.781250
1013,-50.781250
1014,-50.781250
1015,-50.781250
1016,-46.875000
1017,-46.875000
1018,-46.875000
1019,-46.875000
1020,-46.875000
1021,-42.968750
1022,-42.968750
1023,-42.968750
1024,-39.062500
1025,-39.062500
1026,-39.062500
1027,-39.062500
1028,-35.156250
1029,-35.156250
1030,-35.156250
1031,-35.156250
1032,-31.250000
1033,-31.250000
1034,-31.250000
1035,-31.250000
1036,-27.343750
1037,-27.343750
1038,-27.343750
1039,-27.343750
1040,-23.437500
1041,-23.437500
1042,-23.437500
1043,-23.437500
1044,-19.531250
1045,-19.531250
1046,-19.531250
1047,-19.531250
1048,-15.625000
1049,-15.625000
1050,-15.625000
1051,-15.625000
1052,-11.718750
1053,-11.718750
1054,-11.718750
1055,-11.718750
1056,-7.812500
1057,-7.812500
1058,-7.812500
1059,-7.812500
1060,-3.906250
1061,-3.906250
1062,-3.906250
1063,-3.906250
1064,0.000000
1065,0.000000
1066,0.000000
1067,0.000000
1068,0.000000
1069,3.906250
1070,3.906250
1071,3.906250
1072,3.906250
1073,7.812500
1074,7.812500
1075,7.812500
1076,7.812500
1077,7.812500
1078,11.718750
1079,11.718750
1080,15.625000
1081,15.625000
1082,15.625000
1083,15.625000
1084,15.625000
1085,19.531250
1086,19.531250
1087,19.531250
1088,19.531250
1089,23.437500
1090,23.437500
1091,23.437500
1092,23.437500
1093,23.437500
1094,27.343750
1095,27.343750
1096,27.343750
1097,27.343750
1098,31.250000
1099,31.250000
1100,31.250000
1101,31.250000
1102,31.250000
1103,35.156250
1104,35.156250
1105,35.156250
1106,35.156250
1107,39.062500
1108,39.062500
1109,39.062500
1110,39.062500
1111,42.968750
1112,42.968750
1113,42.968750
1114,42.968750
1115,42.968750
1116,42.968750
1117,46.875000
1118,46.875000
1119,46.875000
1120,46.875000
1121,50.781250
1122,50.781250
1123,50.781250
1124,50.781250
1125,50.781250
1126,54.687500
1127,54.687500
1128,54.687500
1129,54.687500
1130,54.687500
1131,58.593750
1132,58.593750
1133,58.593750
1134,58.593750
1135,58.593750
1136,62.500000
1137,62.500000
1138,62.500000
1139,62.500000
1140,62.500000
1141,62.500000
1142,66.406250
1143,66.406250
1144,66.406250
1145,66.406250
1146,70.312500
1147,70.312500
1148,70.312500
1149,70.312500
1150,70.312500
1151,70.312500
1152,74.218750
1153,74.218750
1154,74.218750
1155,74.218750
1156,74.218750
1157,74.218750
1158,74.218750
1159,78.125000
1160,78.125000
1161,78.125000
1162,78.125000
1163,82.031250
1164,82.031250
1165,82.031250
1166,82.031250
1167,82.031250
1168,82.031250
1169,85.937500
1170,85.937500
1171,85.937500
1172,85.937500
1173,85.937500
1174,85.937500
1175,85.937500
1176,89.843750
1177,89.843750
1178,89.843750
1179,89.843750
1180,89.843750
1181,89.843750
1182,89.843750
1183,89.843750
1184,93.750000
1185,93.750000
1186,93.750000
1187,93.750000
1188,93.750000
1189,97.656250
1190,97.656250
1191,97.656250
1192,97.656250
1193,97.656250
1194,97.656250
1195,97.656250
1196,97.656250
1197,101.562500
1198,101.562500
1199,101.562500
1200,101.562500
1201,101.562500
1202,101.562500
1203,101.562500
1204,101.562500
1205,101.562500
1206,105.468750
1207,105.468750
1208,105.468750
1209,105.468750
1210,105.468750
1211,105.468750
1212,105.468750
1213,105.468750
1214,109.375000
1215,109.375000
1216,109.375000
1217,109.375000
1218,109.375000
1219,109.375000
1220,109.375000
1221,109.375000
1222,109.375000
1223,109.375000
1224,113.281250
1225,113.281250
1226,113.281250
1227,113.281250
1228,113.281250
1229,113.281250
1230,113.281250
1231,113.281250
1232,113.281250
1233,117.187500
1234,113.281250
1235,117.187500
1236,117.187500
