Channel              :,CH1
Frequency            :,1.010kHz
Period               :,0.990ms
PK-PK                :,234.4mV
Probe attenuation    :,1X
Voltage per ADC value:,0.244141mV
Time interval        :,1.00000us

index,CH1_Voltage(mV)
1,-58.593750
2,-58.593750
3,-54.687500
4,-54.687500
5,-54.687500
6,-54.687500
7,-54.687500
8,-54.687500
9,-50.781250
10,-50.781250
11,-50.781250
12,-50.781250
13,-50.781250
14,-50.781250
15,-46.875000
16,-46.875000
17,-46.875000
18,-46.875000
19,-46.875000
20,-46.875000
21,-42.968750
22,-42.968750
23,-42.968750
24,-42.968750
25,-39.062500
26,-39.062500
27,-39.062500
28,-39.062500
29,-39.062500
30,-39.062500
31,-35.156250
32,-35.156250
33,-35.156250
34,-35.156250
35,-35.156250
36,-31.250000
37,-31.250000
38,-31.250000
39,-31.250000
40,-31.250000
41,-31.250000
42,-27.343750
43,-27.343750
44,-27.343750
45,-27.343750
46,-27.343750
47,-23.437500
48,-23.437500
49,-23.437500
50,-23.437500
51,-23.437500
52,-23.437500
53,-19.531250
54,-19.531250
55,-19.531250
56,-19.531250
57,-15.625000
58,-15.625000
59,-15.625000
60,-15.625000
61,-15.625000
62,-15.625000
63,-15.625000
64,-11.718750
65,-11.718750
66,-11.718750
67,-11.718750
68,-11.718750
69,-7.812500
70,-7.812500
71,-7.812500
72,-7.812500
73,-7.812500
74,-3.906250
75,-3.906250
76,-3.906250
77,-3.906250
78,-3.906250
79,-3.906250
80,0.000000
81,0.000000
82,0.000000
83,0.000000
84,0.000000
85,0.000000
86,3.906250
87,3.906250
88,3.906250
89,3.906250
90,3.906250
91,7.812500
92,7.812500
93,7.812500
94,7.812500
95,7.812500
96,11.718750
97,11.718750
98,11.718750
99,11.718750
100,11.718750
101,11.718750
102,15.625000
103,15.625000
104,15.625000
105,15.625000
106,15.625000
107,15.625000
108,19.531250
109,19.531250
110,19.531250
111,19.531250
112,19.531250
113,19.531250
114,19.531250
115,23.437500
116,23.437500
117,23.437500
118,23.437500
119,23.437500
120,27.343750
121,27.343750
122,27.343750
123,27.343750
124,27.343750
125,27.343750
126,31.250000
127,31.250000
128,31.250000
129,31.250000
130,31.250000
131,31.250000
132,31.250000
133,35.156250
134,35.156250
135,35.156250
136,35.156250
137,35.156250
138,39.062500
139,35.156250
140,39.062500
141,39.062500
142,39.062500
143,39.062500
144,39.062500
145,39.062500
146,42.968750
147,42.968750
148,42.968750
149,42.968750
150,42.968750
151,46.875000
152,46.875000
153,46.875000
154,46.875000
155,46.875000
156,46.875000
157,46.875000
158,46.875000
159,50.781250
160,50.781250
161,50.781250
162,50.781250
163,50.781250
164,50.781250
165,50.781250
166,50.781250
167,50.781250
168,54.687500
169,54.687500
170,54.687500
171,54.687500
172,54.687500
173,58.593750
174,58.593750
175,58.593750
176,58.593750
177,58.593750
178,58.593750
179,58.593750
180,58.593750
181,58.593750
182,62.500000
183,62.500000
184,62.500000
185,62.500000
186,62.500000
187,62.500000
188,62.500000
189,62.500000
190,66.406250
191,66.406250
192,66.406250
193,66.406250
194,66.406250
195,66.406250
196,66.406250
197,66.406250
198,66.406250
199,70.312500
200,70.312500
201,70.312500
202,70.312500
203,70.312500
204,70.312500
205,70.312500
206,70.312500
207,70.312500
208,70.312500
209,74.218750
210,74.218750
211,74.218750
212,74.218750
213,74.218750
214,74.218750
215,74.218750
216,74.218750
217,78.125000
218,78.125000
219,78.125000
220,78.125000
221,78.125000
222,78.125000
223,78.125000
224,78.125000
225,78.125000
226,78.125000
227,78.125000
228,78.125000
229,78.125000
230,82.031250
231,82.031250
232,82.031250
233,82.031250
234,82.031250
235,82.031250
236,82.031250
237,82.031250
238,82.031250
239,82.031250
240,82.031250
241,82.031250
242,82.031250
243,82.031250
244,85.937500
245,85.937500
246,85.937500
247,85.937500
248,85.937500
249,85.937500
250,85.937500
251,85.937500
252,85.937500
253,85.937500
254,85.937500
255,85.937500
256,85.937500
257,85.937500
258,89.843750
259,89.843750
260,89.843750
261,89.843750
262,89.843750
263,89.843750
264,89.843750
265,89.843750
266,89.843750
267,89.843750
268,89.843750
269,89.843750
270,89.843750
271,89.843750
272,89.843750
273,89.843750
274,89.843750
275,93.750000
276,89.843750
277,93.750000
278,93.750000
279,93.750000
280,93.750000
281,93.750000
282,93.750000
283,93.750000
284,93.750000
285,93.750000
286,89.843750
287,93.750000
288,93.750000
289,93.750000
290,93.750000
291,93.750000
292,93.750000
293,93.750000
294,93.750000
295,93.750000
296,93.750000
297,93.750000
298,93.750000
299,93.750000
300,93.750000
301,93.750000
302,93.750000
303,93.750000
304,93.750000
305,93.750000
306,93.750000
307,93.750000
308,93.750000
309,93.750000
310,93.750000
311,93.750000
312,93.750000
313,93.750000
314,93.750000
315,93.750000
316,93.750000
317,93.750000
318,93.750000
319,93.750000
320,93.750000
321,93.750000
322,93.750000
323,93.750000
324,93.750000
325,93.750000
326,93.750000
327,93.750000
328,93.750000
329,93.750000
330,93.750000
331,93.750000
332,93.750000
333,93.750000
334,93.750000
335,93.750000
336,93.750000
337,93.750000
338,93.750000
339,93.750000
340,93.750000
341,93.750000
342,93.750000
343,93.750000
344,93.750000
345,93.750000
346,93.750000
347,93.750000
348,93.750000
349,93.750000
350,93.750000
351,93.750000
352,93.750000
353,89.843750
354,93.750000
355,93.750000
356,93.750000
357,89.843750
358,89.843750
359,89.843750
360,89.843750
361,89.843750
362,89.843750
363,89.843750
364,89.843750
365,89.843750
366,89.843750
367,89.843750
368,89.843750
369,89.843750
370,89.843750
371,89.843750
372,89.843750
373,89.843750
374,89.843750
375,89.843750
376,89.843750
377,85.937500
378,85.937500
379,85.937500
380,85.937500
381,85.937500
382,85.937500
383,85.937500
384,85.937500
385,85.937500
386,85.937500
387,85.937500
388,85.937500
389,85.937500
390,85.937500
391,85.937500
392,85.937500
393,82.031250
394,82.031250
395,82.031250
396,82.031250
397,82.031250
398,82.031250
399,82.031250
400,82.031250
401,82.031250
402,82.031250
403,82.031250
404,82.031250
405,82.031250
406,78.125000
407,78.125000
408,78.125000
409,78.125000
410,78.125000
411,78.125000
412,78.125000
413,78.125000
414,78.125000
415,78.125000
416,78.125000
417,78.125000
418,74.218750
419,74.218750
420,74.218750
421,74.218750
422,74.218750
423,74.218750
424,74.218750
425,74.218750
426,70.312500
427,70.312500
428,70.312500
429,70.312500
430,70.312500
431,70.312500
432,70.312500
433,70.312500
434,70.312500
435,70.312500
436,66.406250
437,66.406250
438,66.406250
439,66.406250
440,66.406250
441,66.406250
442,66.406250
443,66.406250
444,66.406250
445,62.500000
446,62.500000
447,62.500000
448,62.500000
449,62.500000
450,62.500000
451,62.500000
452,62.500000
453,58.593750
454,58.593750
455,58.593750
456,58.593750
457,58.593750
458,58.593750
459,58.593750
460,58.593750
461,58.593750
462,54.687500
463,54.687500
464,54.687500
465,54.687500
466,54.687500
467,54.687500
468,50.781250
469,50.781250
470,54.687500
471,50.781250
472,50.781250
473,50.781250
474,50.781250
475,50.781250
476,46.875000
477,46.875000
478,46.875000
479,46.875000
480,46.875000
481,46.875000
482,46.875000
483,46.875000
484,42.968750
485,42.968750
486,42.968750
487,42.968750
488,42.968750
489,42.968750
490,42.968750
491,39.062500
492,39.062500
493,39.062500
494,39.062500
495,35.156250
496,35.156250
497,35.156250
498,35.156250
499,35.156250
500,35.156250
501,35.156250
502,35.156250
503,31.250000
504,31.250000
505,31.250000
506,31.250000
507,31.250000
508,27.343750
509,27.343750
510,27.343750
511,27.343750
512,27.343750
513,27.343750
514,27.343750
515,23.437500
516,23.437500
517,23.437500
518,23.437500
519,23.437500
520,23.437500
521,23.437500
522,19.531250
523,19.531250
524,19.531250
525,19.531250
526,19.531250
527,15.625000
528,15.625000
529,15.625000
530,15.625000
531,15.625000
532,11.718750
533,11.718750
534,11.718750
535,11.718750
536,11.718750
537,7.812500
538,7.812500
539,7.812500
540,7.812500
541,7.812500
542,7.812500
543,7.812500
544,7.812500
545,3.906250
546,3.906250
547,3.906250
548,0.000000
549,0.000000
550,0.000000
551,0.000000
552,0.000000
553,0.000000
554,0.000000
555,0.000000
556,-3.906250
557,-3.906250
558,-3.906250
559,-3.906250
560,-7.812500
561,-7.812500
562,-7.812500
563,-7.812500
564,-7.812500
565,-7.812500
566,-11.718750
567,-11.718750
568,-11.718750
569,-11.718750
570,-11.718750
571,-15.625000
572,-15.625000
573,-15.625000
574,-15.625000
575,-15.625000
576,-15.625000
577,-19.531250
578,-19.531250
579,-19.531250
580,-19.531250
581,-19.531250
582,-19.531250
583,-23.437500
584,-23.437500
585,-23.437500
586,-23.437500
587,-27.343750
588,-27.343750
589,-27.343750
590,-27.343750
591,-27.343750
592,-27.343750
593,-31.250000
594,-31.250000
595,-31.250000
596,-31.250000
597,-31.250000
598,-35.156250
599,-35.156250
600,-35.156250
601,-35.156250
602,-35.156250
603,-35.156250
604,-39.062500
605,-39.062500
606,-39.062500
607,-39.062500
608,-39.062500
609,-42.968750
610,-42.968750
611,-42.968750
612,-42.968750
613,-42.968750
614,-42.968750
615,-46.875000
616,-46.875000
617,-46.875000
618,-46.875000
619,-46.875000
620,-50.781250
621,-50.781250
622,-50.781250
623,-50.781250
624,-50.781250
625,-54.687500
626,-54.687500
627,-54.687500
628,-54.687500
629,-54.687500
630,-54.687500
631,-58.593750
632,-58.593750
633,-58.593750
634,-58.593750
635,-58.593750
636,-58.593750
637,-62.500000
638,-62.500000
639,-62.500000
640,-62.500000
641,-62.500000
642,-66.406250
643,-66.406250
644,-66.406250
645,-66.406250
646,-66.406250
647,-66.406250
648,-70.312500
649,-70.312500
650,-70.312500
651,-70.312500
652,-70.312500
653,-70.312500
654,-74.218750
655,-74.218750
656,-74.218750
657,-74.218750
658,-74.218750
659,-74.218750
660,-74.218750
661,-78.125000
662,-78.125000
663,-78.125000
664,-78.125000
665,-78.125000
666,-82.031250
667,-82.031250
668,-82.031250
669,-82.031250
670,-82.031250
671,-82.031250
672,-82.031250
673,-82.031250
674,-82.031250
675,-85.937500
676,-85.937500
677,-85.937500
678,-85.937500
679,-89.843750
680,-89.843750
681,-89.843750
682,-89.843750
683,-89.843750
684,-89.843750
685,-93.750000
686,-89.843750
687,-89.843750
688,-93.750000
689,-93.750000
690,-93.750000
691,-93.750000
692,-93.750000
693,-93.750000
694,-97.656250
695,-97.656250
696,-97.656250
697,-97.656250
698,-97.656250
699,-97.656250
700,-97.656250
701,-101.562500
702,-101.562500
703,-101.562500
704,-101.562500
705,-101.562500
706,-101.562500
707,-101.562500
708,-101.562500
709,-101.562500
710,-105.468750
711,-105.468750
712,-105.468750
713,-105.468750
714,-105.468750
715,-105.468750
716,-105.468750
717,-105.468750
718,-109.375000
719,-109.375000
720,-109.375000
721,-109.375000
722,-109.375000
723,-109.375000
724,-109.375000
725,-109.375000
726,-109.375000
727,-109.375000
728,-113.281250
729,-113.281250
730,-113.281250
731,-113.281250
732,-113.281250
733,-113.281250
734,-113.281250
735,-113.281250
736,-117.187500
737,-117.187500
738,-117.187500
739,-117.187500
740,-117.187500
741,-117.187500
742,-117.187500
743,-117.187500
744,-117.187500
745,-117.187500
746,-121.093750
747,-121.093750
748,-121.093750
749,-121.093750
750,-121.093750
751,-121.093750
752,-121.093750
753,-121.093750
754,-121.093750
755,-121.093750
756,-121.093750
757,-121.093750
758,-121.093750
759,-121.093750
760,-125.000000
761,-121.093750
762,-125.000000
763,-125.000000
764,-125.000000
765,-125.000000
766,-125.000000
767,-125.000000
768,-125.000000
769,-125.000000
770,-125.000000
771,-125.000000
772,-125.000000
773,-125.000000
774,-125.000000
775,-125.000000
776,-125.000000
777,-125.000000
778,-125.000000
779,-128.906250
780,-128.906250
781,-128.906250
782,-128.906250
783,-128.906250
784,-128.906250
785,-128.906250
786,-128.906250
787,-128.906250
788,-128.906250
789,-128.906250
790,-128.906250
791,-128.906250
792,-128.906250
793,-128.906250
794,-128.906250
795,-128.906250
796,-128.906250
797,-128.906250
798,-128.906250
799,-128.906250
800,-128.906250
801,-128.906250
802,-128.906250
803,-128.906250
804,-128.906250
805,-128.906250
806,-128.906250
807,-128.906250
808,-128.906250
809,-128.906250
810,-128.906250
811,-128.906250
812,-128.906250
813,-128.906250
814,-128.906250
815,-128.906250
816,-128.906250
817,-128.906250
818,-128.906250
819,-128.906250
820,-128.906250
821,-128.906250
822,-128.906250
823,-128.906250
824,-128.906250
825,-128.906250
826,-128.906250
827,-128.906250
828,-128.906250
829,-128.906250
830,-128.906250
831,-128.906250
832,-128.906250
833,-128.906250
834,-128.906250
835,-128.906250
836,-128.906250
837,-128.906250
838,-128.906250
839,-128.906250
840,-125.000000
841,-128.906250
842,-128.906250
843,-125.000000
844,-125.000000
845,-125.000000
846,-128.906250
847,-125.000000
848,-125.000000
849,-125.000000
850,-128.906250
851,-125.000000
852,-125.000000
853,-125.000000
854,-125.000000
855,-125.000000
856,-125.000000
857,-125.000000
858,-125.000000
859,-125.000000
860,-125.000000
861,-125.000000
862,-125.000000
863,-121.093750
864,-121.093750
865,-121.093750
866,-121.093750
867,-121.093750
868,-121.093750
869,-121.093750
870,-121.093750
871,-121.093750
872,-121.093750
873,-121.093750
874,-121.093750
875,-121.093750
876,-121.093750
877,-117.187500
878,-117.187500
879,-117.187500
880,-117.187500
881,-117.187500
882,-117.187500
883,-117.187500
884,-117.187500
885,-117.187500
886,-117.187500
887,-117.187500
888,-117.187500
889,-113.281250
890,-113.281250
891,-113.281250
892,-113.281250
893,-113.281250
894,-113.281250
895,-113.281250
896,-113.281250
897,-113.281250
898,-109.375000
899,-113.281250
900,-109.375000
901,-109.375000
902,-109.375000
903,-109.375000
904,-109.375000
905,-109.375000
906,-109.375000
907,-109.375000
908,-105.468750
909,-105.468750
910,-105.468750
911,-105.468750
912,-105.468750
913,-105.468750
914,-105.468750
915,-105.468750
916,-105.468750
917,-105.468750
918,-101.562500
919,-101.562500
920,-101.562500
921,-101.562500
922,-101.562500
923,-101.562500
924,-97.656250
925,-97.656250
926,-97.656250
927,-97.656250
928,-97.656250
929,-97.656250
930,-97.656250
931,-97.656250
932,-93.750000
933,-93.750000
934,-93.750000
935,-93.750000
936,-93.750000
937,-93.750000
938,-93.750000
939,-89.843750
940,-89.843750
941,-89.843750
942,-89.843750
943,-89.843750
944,-89.843750
945,-89.843750
946,-89.843750
947,-85.937500
948,-85.937500
949,-85.937500
950,-85.937500
951,-82.031250
952,-82.031250
953,-82.031250
954,-82.031250
955,-82.031250
956,-82.031250
957,-82.031250
958,-78.125000
959,-78.125000
960,-78.125000
961,-78.125000
962,-78.125000
963,-78.125000
964,-78.125000
965,-74.218750
966,-74.218750
967,-74.218750
968,-74.218750
969,-74.218750
970,-70.312500
971,-70.312500
972,-70.312500
973,-70.312500
974,-70.312500
975,-66.406250
976,-70.312500
977,-66.406250
978,-66.406250
979,-66.406250
980,-66.406250
981,-66.406250
982,-62.500000
983,-62.500000
984,-62.500000
985,-62.500000
986,-62.500000
987,-62.500000
988,-58.593750
989,-58.593750
990,-58.593750
991,-58.593750
992,-58.593750
993,-58.593750
994,-54.687500
995,-54.687500
996,-54.687500
997,-54.687500
998,-50.781250
999,-50.781250
1000,-50.781250
1001,-50.781250
1002,-50.781250
1003,-50.781250
1004,-46.875000
1005,-46.875000
1006,-46.875000
1007,-46.875000
1008,-46.875000
1009,-46.875000
1010,-46.875000
1011,-42.968750
1012,-42.968750
1013,-42.968750
1014,-42.968750
1015,-42.968750
1016,-39.062500
1017,-39.062500
1018,-39.062500
1019,-39.062500
1020,-39.062500
1021,-35.156250
1022,-35.156250
1023,-35.156250
1024,-35.156250
1025,-35.156250
1026,-31.250000
1027,-31.250000
1028,-31.250000
1029,-31.250000
1030,-31.250000
1031,-27.343750
1032,-27.343750
1033,-27.343750
1034,-27.343750
1035,-27.343750
1036,-27.343750
1037,-27.343750
1038,-23.437500
1039,-23.437500
1040,-23.437500
1041,-23.437500
1042,-23.437500
1043,-19.531250
1044,-19.531250
1045,-19.531250
1046,-19.531250
1047,-15.625000
1048,-15.625000
1049,-15.625000
1050,-15.625000
1051,-15.625000
1052,-15.625000
1053,-11.718750
1054,-11.718750
1055,-11.718750
1056,-11.718750
1057,-11.718750
1058,-7.812500
1059,-7.812500
1060,-7.812500
1061,-7.812500
1062,-7.812500
1063,-7.812500
1064,-7.812500
1065,-3.906250
1066,-3.906250
1067,-3.906250
1068,-3.906250
1069,-3.906250
1070,0.000000
1071,0.000000
1072,0.000000
1073,0.000000
1074,0.000000
1075,3.906250
1076,3.906250
1077,3.906250
1078,3.906250
1079,3.906250
1080,3.906250
1081,7.812500
1082,7.812500
1083,7.812500
1084,7.812500
1085,7.812500
1086,11.718750
1087,11.718750
1088,11.718750
1089,11.718750
1090,11.718750
1091,11.718750
1092,15.625000
1093,15.625000
1094,15.625000
1095,15.625000
1096,15.625000
1097,19.531250
1098,15.625000
1099,19.531250
1100,19.531250
1101,19.531250
1102,19.531250
1103,23.437500
1104,23.437500
1105,23.437500
1106,23.437500
1107,23.437500
1108,23.437500
1109,27.343750
1110,27.343750
1111,27.343750
1112,27.343750
1113,27.343750
1114,27.343750
1115,31.250000
1116,31.250000
1117,31.250000
1118,31.250000
1119,31.250000
1120,31.250000
1121,35.156250
1122,35.156250
1123,35.156250
1124,35.156250
1125,35.156250
1126,35.156250
1127,35.156250
1128,35.156250
1129,39.062500
1130,39.062500
1131,39.062500
1132,39.062500
1133,42.968750
1134,39.062500
1135,42.968750
1136,42.968750
1137,42.968750
1138,42.968750
1139,46.875000
1140,46.875000
1141,46.875000
1142,46.875000
1143,46.875000
1144,46.875000
1145,46.875000
1146,46.875000
1147,50.781250
1148,50.781250
1149,50.781250
1150,50.781250
1151,50.781250
1152,50.781250
1153,50.781250
1154,50.781250
1155,50.781250
1156,54.687500
1157,54.687500
1158,54.687500
1159,54.687500
1160,54.687500
1161,54.687500
1162,54.687500
1163,54.687500
1164,58.593750
1165,58.593750
1166,58.593750
1167,58.593750
1168,58.593750
1169,58.593750
1170,62.500000
1171,62.500000
1172,62.500000
1173,62.500000
1174,62.500000
1175,62.500000
1176,62.500000
1177,62.500000
1178,62.500000
1179,62.500000
1180,66.406250
1181,66.406250
1182,66.406250
1183,66.406250
1184,66.406250
1185,66.406250
1186,66.406250
1187,70.312500
1188,70.312500
1189,70.312500
1190,70.312500
1191,70.312500
1192,70.312500
1193,70.312500
1194,70.312500
1195,70.312500
1196,74.218750
1197,74.218750
1198,74.218750
1199,74.218750
1200,70.312500
1201,74.218750
1202,74.218750
1203,74.218750
1204,74.218750
1205,74.218750
1206,78.125000
1207,78.125000
1208,78.125000
1209,78.125000
1210,78.125000
1211,78.125000
1212,78.125000
1213,78.125000
1214,78.125000
1215,78.125000
1216,78.125000
1217,82.031250
1218,78.125000
1219,78.125000
1220,78.125000
1221,82.031250
1222,82.031250
1223,82.031250
1224,82.031250
1225,82.031250
1226,82.031250
1227,82.031250
1228,82.031250
1229,82.031250
1230,82.031250
1231,82.031250
1232,85.937500
1233,85.937500
1234,85.937500
1235,85.937500
1236,85.937500
1237,85.937500
1238,85.937500
1239,85.937500
1240,85.937500
1241,85.937500
1242,85.937500
1243,85.937500
1244,85.937500
1245,85.937500
1246,89.843750
1247,89.843750
1248,89.843750
1249,89.843750
1250,89.843750
1251,89.843750
1252,89.843750
1253,89.843750
1254,89.843750
1255,89.843750
1256,89.843750
1257,89.843750
1258,89.843750
