Channel              :,CH1
Frequency            :,1.012kHz
Period               :,0.989ms
PK-PK                :,339.8mV
Probe attenuation    :,1X
Voltage per ADC value:,0.244141mV
Time interval        :,1.00000us

index,CH1_Voltage(mV)
1,-82.031250
2,-82.031250
3,-78.125000
4,-78.125000
5,-78.125000
6,-74.218750
7,-74.218750
8,-74.218750
9,-74.218750
10,-70.312500
11,-70.312500
12,-70.312500
13,-70.312500
14,-66.406250
15,-66.406250
16,-66.406250
17,-66.406250
18,-62.500000
19,-62.500000
20,-62.500000
21,-58.593750
22,-58.593750
23,-58.593750
24,-58.593750
25,-54.687500
26,-54.687500
27,-54.687500
28,-50.781250
29,-50.781250
30,-50.781250
31,-50.781250
32,-46.875000
33,-46.875000
34,-46.875000
35,-46.875000
36,-42.968750
37,-42.968750
38,-42.968750
39,-39.062500
40,-39.062500
41,-39.062500
42,-35.156250
43,-35.156250
44,-35.156250
45,-35.156250
46,-31.250000
47,-31.250000
48,-31.250000
49,-31.250000
50,-27.343750
51,-27.343750
52,-27.343750
53,-27.343750
54,-23.437500
55,-23.437500
56,-23.437500
57,-19.531250
58,-19.531250
59,-19.531250
60,-15.625000
61,-15.625000
62,-15.625000
63,-15.625000
64,-11.718750
65,-11.718750
66,-11.718750
67,-11.718750
68,-7.812500
69,-7.812500
70,-7.812500
71,-7.812500
72,-3.906250
73,-3.906250
74,-3.906250
75,0.000000
76,0.000000
77,0.000000
78,0.000000
79,3.906250
80,3.906250
81,3.906250
82,3.906250
83,7.812500
84,7.812500
85,11.718750
86,11.718750
87,11.718750
88,11.718750
89,11.718750
90,15.625000
91,15.625000
92,15.625000
93,15.625000
94,19.531250
95,19.531250
96,19.531250
97,19.531250
98,23.437500
99,23.437500
100,23.437500
101,27.343750
102,27.343750
103,27.343750
104,31.250000
105,31.250000
106,31.250000
107,31.250000
108,31.250000
109,31.250000
110,35.156250
111,35.156250
112,39.062500
113,39.062500
114,39.062500
115,39.062500
116,39.062500
117,42.968750
118,42.968750
119,42.968750
120,42.968750
121,46.875000
122,46.875000
123,46.875000
124,46.875000
125,50.781250
126,50.781250
127,50.781250
128,54.687500
129,54.687500
130,54.687500
131,54.687500
132,54.687500
133,58.593750
134,58.593750
135,58.593750
136,58.593750
137,58.593750
138,62.500000
139,62.500000
140,62.500000
141,66.406250
142,66.406250
143,66.406250
144,66.406250
145,66.406250
146,70.312500
147,70.312500
148,70.312500
149,70.312500
150,70.312500
151,74.218750
152,74.218750
153,74.218750
154,74.218750
155,78.125000
156,78.125000
157,78.125000
158,78.125000
159,78.125000
160,82.031250
161,82.031250
162,82.031250
163,82.031250
164,82.031250
165,85.937500
166,85.937500
167,85.937500
168,85.937500
169,85.937500
170,89.843750
171,89.843750
172,89.843750
173,89.843750
174,89.843750
175,93.750000
176,93.750000
177,93.750000
178,93.750000
179,93.750000
180,97.656250
181,97.656250
182,97.656250
183,97.656250
184,97.656250
185,101.562500
186,101.562500
187,101.562500
188,101.562500
189,101.562500
190,101.562500
191,101.562500
192,101.562500
193,105.468750
194,105.468750
195,105.468750
196,105.468750
197,105.468750
198,109.375000
199,109.375000
200,109.375000
201,109.375000
202,109.375000
203,109.375000
204,109.375000
205,113.281250
206,113.281250
207,113.281250
208,113.281250
209,113.281250
210,113.281250
211,117.187500
212,117.187500
213,117.187500
214,117.187500
215,117.187500
216,117.187500
217,117.187500
218,117.187500
219,121.093750
220,121.093750
221,121.093750
222,121.093750
223,121.093750
224,121.093750
225,121.093750
226,125.000000
227,125.000000
228,125.000000
229,125.000000
230,125.000000
231,125.000000
232,125.000000
233,125.000000
234,125.000000
235,128.906250
236,128.906250
237,128.906250
238,128.906250
239,128.906250
240,128.906250
241,128.906250
242,128.906250
243,128.906250
244,128.906250
245,128.906250
246,132.812500
247,132.812500
248,132.812500
249,132.812500
250,132.812500
251,132.812500
252,132.812500
253,132.812500
254,132.812500
255,132.812500
256,132.812500
257,136.718750
258,136.718750
259,136.718750
260,136.718750
261,136.718750
262,136.718750
263,136.718750
264,136.718750
265,136.718750
266,136.718750
267,136.718750
268,140.625000
269,140.625000
270,136.718750
271,140.625000
272,140.625000
273,140.625000
274,140.625000
275,144.531250
276,140.625000
277,140.625000
278,140.625000
279,140.625000
280,140.625000
281,140.625000
282,140.625000
283,144.531250
284,144.531250
285,140.625000
286,140.625000
287,144.531250
288,144.531250
289,144.531250
290,144.531250
291,144.531250
292,144.531250
293,144.531250
294,144.531250
295,144.531250
296,144.531250
297,144.531250
298,144.531250
299,144.531250
300,144.531250
301,144.531250
302,144.531250
303,144.531250
304,144.531250
305,144.531250
306,144.531250
307,144.531250
308,144.531250
309,144.531250
310,144.531250
311,144.531250
312,144.531250
313,148.437500
314,144.531250
315,144.531250
316,144.531250
317,144.531250
318,144.531250
319,144.531250
320,144.531250
321,144.531250
322,144.531250
323,144.531250
324,144.531250
325,144.531250
326,144.531250
327,144.531250
328,144.531250
329,144.531250
330,144.531250
331,144.531250
332,144.531250
333,144.531250
334,144.531250
335,144.531250
336,144.531250
337,144.531250
338,144.531250
339,144.531250
340,144.531250
341,144.531250
342,144.531250
343,144.531250
344,144.531250
345,144.531250
346,144.531250
347,144.531250
348,144.531250
349,144.531250
350,144.531250
351,144.531250
352,144.531250
353,144.531250
354,144.531250
355,144.531250
356,144.531250
357,144.531250
358,144.531250
359,144.531250
360,140.625000
361,140.625000
362,140.625000
363,140.625000
364,140.625000
365,140.625000
366,140.625000
367,140.625000
368,140.625000
369,140.625000
370,140.625000
371,140.625000
372,136.718750
373,140.625000
374,140.625000
375,140.625000
376,140.625000
377,136.718750
378,136.718750
379,136.718750
380,136.718750
381,136.718750
382,136.718750
383,136.718750
384,136.718750
385,136.718750
386,136.718750
387,136.718750
388,132.812500
389,132.812500
390,132.812500
391,132.812500
392,132.812500
393,132.812500
394,132.812500
395,132.812500
396,132.812500
397,132.812500
398,132.812500
399,128.906250
400,128.906250
401,128.906250
402,128.906250
403,128.906250
404,128.906250
405,128.906250
406,128.906250
407,128.906250
408,125.000000
409,128.906250
410,125.000000
411,125.000000
412,125.000000
413,125.000000
414,125.000000
415,125.000000
416,125.000000
417,121.093750
418,125.000000
419,121.093750
420,121.093750
421,121.093750
422,121.093750
423,121.093750
424,121.093750
425,121.093750
426,117.187500
427,117.187500
428,117.187500
429,117.187500
430,117.187500
431,117.187500
432,117.187500
433,113.281250
434,113.281250
435,113.281250
436,113.281250
437,113.281250
438,113.281250
439,113.281250
440,109.375000
441,109.375000
442,109.375000
443,109.375000
444,109.375000
445,109.375000
446,105.468750
447,105.468750
448,105.468750
449,105.468750
450,105.468750
451,105.468750
452,105.468750
453,101.562500
454,101.562500
455,101.562500
456,97.656250
457,101.562500
458,97.656250
459,97.656250
460,97.656250
461,97.656250
462,97.656250
463,93.750000
464,93.750000
465,93.750000
466,93.750000
467,93.750000
468,93.750000
469,89.843750
470,89.843750
471,89.843750
472,89.843750
473,85.937500
474,85.937500
475,85.937500
476,85.937500
477,85.937500
478,85.937500
479,82.031250
480,82.031250
481,82.031250
482,78.125000
483,82.031250
484,78.125000
485,78.125000
486,78.125000
487,78.125000
488,74.218750
489,74.218750
490,74.218750
491,74.218750
492,74.218750
493,70.312500
494,70.312500
495,70.312500
496,70.312500
497,66.406250
498,66.406250
499,66.406250
500,66.406250
501,66.406250
502,62.500000
503,62.500000
504,62.500000
505,62.500000
506,58.593750
507,58.593750
508,58.593750
509,58.593750
510,54.687500
511,54.687500
512,54.687500
513,54.687500
514,54.687500
515,50.781250
516,50.781250
517,50.781250
518,50.781250
519,46.875000
520,46.875000
521,46.875000
522,42.968750
523,42.968750
524,42.968750
525,42.968750
526,39.062500
527,39.062500
528,39.062500
529,39.062500
530,39.062500
531,35.156250
532,35.156250
533,35.156250
534,35.156250
535,31.250000
536,31.250000
537,31.250000
538,31.250000
539,27.343750
540,27.343750
541,27.343750
542,27.343750
543,23.437500
544,23.437500
545,23.437500
546,19.531250
547,19.531250
548,19.531250
549,19.531250
550,15.625000
551,15.625000
552,15.625000
553,15.625000
554,11.718750
555,11.718750
556,11.718750
557,7.812500
558,7.812500
559,7.812500
560,7.812500
561,3.906250
562,3.906250
563,3.906250
564,3.906250
565,0.000000
566,0.000000
567,0.000000
568,-3.906250
569,-3.906250
570,-3.906250
571,-3.906250
572,-7.812500
573,-7.812500
574,-7.812500
575,-7.812500
576,-11.718750
577,-11.718750
578,-15.625000
579,-15.625000
580,-15.625000
581,-15.625000
582,-19.531250
583,-19.531250
584,-19.531250
585,-23.437500
586,-23.437500
587,-23.437500
588,-23.437500
589,-23.437500
590,-27.343750
591,-27.343750
592,-27.343750
593,-31.250000
594,-31.250000
595,-31.250000
596,-31.250000
597,-35.156250
598,-35.156250
599,-35.156250
600,-39.062500
601,-39.062500
602,-39.062500
603,-39.062500
604,-42.968750
605,-42.968750
606,-42.968750
607,-46.875000
608,-46.875000
609,-46.875000
610,-50.781250
611,-50.781250
612,-50.781250
613,-50.781250
614,-54.687500
615,-54.687500
616,-54.687500
617,-54.687500
618,-58.593750
619,-58.593750
620,-58.593750
621,-62.500000
622,-62.500000
623,-62.500000
624,-66.406250
625,-66.406250
626,-66.406250
627,-66.406250
628,-66.406250
629,-70.312500
630,-70.312500
631,-70.312500
632,-74.218750
633,-74.218750
634,-74.218750
635,-74.218750
636,-78.125000
637,-78.125000
638,-78.125000
639,-82.031250
640,-82.031250
641,-82.031250
642,-82.031250
643,-85.937500
644,-85.937500
645,-85.937500
646,-85.937500
647,-89.843750
648,-89.843750
649,-89.843750
650,-89.843750
651,-93.750000
652,-93.750000
653,-93.750000
654,-97.656250
655,-97.656250
656,-97.656250
657,-97.656250
658,-97.656250
659,-101.562500
660,-101.562500
661,-101.562500
662,-105.468750
663,-105.468750
664,-105.468750
665,-105.468750
666,-109.375000
667,-109.375000
668,-109.375000
669,-109.375000
670,-113.281250
671,-113.281250
672,-113.281250
673,-113.281250
674,-113.281250
675,-117.187500
676,-117.187500
677,-117.187500
678,-117.187500
679,-121.093750
680,-121.093750
681,-121.093750
682,-121.093750
683,-125.000000
684,-125.000000
685,-125.000000
686,-125.000000
687,-125.000000
688,-128.906250
689,-128.906250
690,-128.906250
691,-132.812500
692,-132.812500
693,-132.812500
694,-132.812500
695,-132.812500
696,-132.812500
697,-136.718750
698,-136.718750
699,-136.718750
700,-140.625000
701,-140.625000
702,-140.625000
703,-140.625000
704,-140.625000
705,-140.625000
706,-144.531250
707,-144.531250
708,-144.531250
709,-144.531250
710,-148.437500
711,-148.437500
712,-148.437500
713,-148.437500
714,-148.437500
715,-148.437500
716,-148.437500
717,-152.343750
718,-152.343750
719,-152.343750
720,-152.343750
721,-152.343750
722,-156.250000
723,-156.250000
724,-156.250000
725,-156.250000
726,-156.250000
727,-156.250000
728,-160.156250
729,-160.156250
730,-160.156250
731,-160.156250
732,-160.156250
733,-164.062500
734,-164.062500
735,-164.062500
736,-164.062500
737,-164.062500
738,-164.062500
739,-164.062500
740,-164.062500
741,-167.968750
742,-167.968750
743,-167.968750
744,-167.968750
745,-167.968750
746,-167.968750
747,-167.968750
748,-171.875000
749,-171.875000
750,-171.875000
751,-171.875000
752,-171.875000
753,-171.875000
754,-171.875000
755,-171.875000
756,-175.781250
757,-175.781250
758,-175.781250
759,-175.781250
760,-175.781250
761,-175.781250
762,-179.687500
763,-175.781250
764,-179.687500
765,-179.687500
766,-179.687500
767,-179.687500
768,-179.687500
769,-179.687500
770,-179.687500
771,-179.687500
772,-179.687500
773,-179.687500
774,-179.687500
775,-183.593750
776,-183.593750
777,-183.593750
778,-183.593750
779,-183.593750
780,-183.593750
781,-183.593750
782,-183.593750
783,-183.593750
784,-183.593750
785,-183.593750
786,-183.593750
787,-183.593750
788,-183.593750
789,-183.593750
790,-187.500000
791,-187.500000
792,-187.500000
793,-187.500000
794,-187.500000
795,-187.500000
796,-187.500000
797,-187.500000
798,-187.500000
799,-187.500000
800,-187.500000
801,-187.500000
802,-187.500000
803,-187.500000
804,-187.500000
805,-187.500000
806,-187.500000
807,-187.500000
808,-187.500000
809,-187.500000
810,-187.500000
811,-187.500000
812,-187.500000
813,-187.500000
814,-187.500000
815,-187.500000
816,-187.500000
817,-187.500000
818,-187.500000
819,-187.500000
820,-187.500000
821,-187.500000
822,-187.500000
823,-187.500000
824,-187.500000
825,-187.500000
826,-187.500000
827,-187.500000
828,-187.500000
829,-187.500000
830,-187.500000
831,-187.500000
832,-187.500000
833,-187.500000
834,-187.500000
835,-187.500000
836,-187.500000
837,-187.500000
838,-187.500000
839,-187.500000
840,-187.500000
841,-183.593750
842,-183.593750
843,-183.593750
844,-183.593750
845,-187.500000
846,-183.593750
847,-183.593750
848,-183.593750
849,-183.593750
850,-183.593750
851,-183.593750
852,-183.593750
853,-183.593750
854,-183.593750
855,-183.593750
856,-183.593750
857,-183.593750
858,-179.687500
859,-179.687500
860,-179.687500
861,-179.687500
862,-179.687500
863,-179.687500
864,-179.687500
865,-179.687500
866,-179.687500
867,-175.781250
868,-179.687500
869,-175.781250
870,-175.781250
871,-175.781250
872,-175.781250
873,-175.781250
874,-175.781250
875,-175.781250
876,-175.781250
877,-175.781250
878,-175.781250
879,-171.875000
880,-171.875000
881,-171.875000
882,-171.875000
883,-171.875000
884,-171.875000
885,-171.875000
886,-167.968750
887,-167.968750
888,-167.968750
889,-167.968750
890,-167.968750
891,-167.968750
892,-164.062500
893,-164.062500
894,-164.062500
895,-164.062500
896,-164.062500
897,-164.062500
898,-164.062500
899,-160.156250
900,-160.156250
901,-160.156250
902,-160.156250
903,-160.156250
904,-160.156250
905,-160.156250
906,-156.250000
907,-156.250000
908,-156.250000
909,-156.250000
910,-156.250000
911,-156.250000
912,-152.343750
913,-152.343750
914,-152.343750
915,-152.343750
916,-152.343750
917,-152.343750
918,-148.437500
919,-148.437500
920,-148.437500
921,-148.437500
922,-148.437500
923,-144.531250
924,-144.531250
925,-144.531250
926,-144.531250
927,-140.625000
928,-140.625000
929,-140.625000
930,-140.625000
931,-136.718750
932,-136.718750
933,-136.718750
934,-136.718750
935,-136.718750
936,-136.718750
937,-132.812500
938,-132.812500
939,-132.812500
940,-132.812500
941,-132.812500
942,-128.906250
943,-128.906250
944,-128.906250
945,-125.000000
946,-125.000000
947,-125.000000
948,-125.000000
949,-125.000000
950,-125.000000
951,-121.093750
952,-121.093750
953,-121.093750
954,-117.187500
955,-117.187500
956,-117.187500
957,-117.187500
958,-117.187500
959,-113.281250
960,-113.281250
961,-113.281250
962,-113.281250
963,-109.375000
964,-109.375000
965,-109.375000
966,-109.375000
967,-105.468750
968,-105.468750
969,-105.468750
970,-105.468750
971,-101.562500
972,-101.562500
973,-101.562500
974,-97.656250
975,-97.656250
976,-97.656250
977,-97.656250
978,-97.656250
979,-93.750000
980,-93.750000
981,-93.750000
982,-93.750000
983,-89.843750
984,-89.843750
985,-89.843750
986,-89.843750
987,-85.937500
988,-85.937500
989,-85.937500
990,-82.031250
991,-82.031250
992,-82.031250
993,-82.031250
994,-78.125000
995,-78.125000
996,-78.125000
997,-78.125000
998,-74.218750
999,-74.218750
1000,-74.218750
1001,-74.218750
1002,-70.312500
1003,-70.312500
1004,-70.312500
1005,-66.406250
1006,-66.406250
1007,-66.406250
1008,-62.500000
1009,-62.500000
1010,-62.500000
1011,-62.500000
1012,-62.500000
1013,-58.593750
1014,-58.593750
1015,-58.593750
1016,-54.687500
1017,-54.687500
1018,-54.687500
1019,-50.781250
1020,-50.781250
1021,-50.781250
1022,-50.781250
1023,-46.875000
1024,-46.875000
1025,-46.875000
1026,-46.875000
1027,-42.968750
1028,-42.968750
1029,-42.968750
1030,-39.062500
1031,-39.062500
1032,-39.062500
1033,-39.062500
1034,-35.156250
1035,-35.156250
1036,-35.156250
1037,-31.250000
1038,-31.250000
1039,-31.250000
1040,-27.343750
1041,-27.343750
1042,-27.343750
1043,-27.343750
1044,-23.437500
1045,-23.437500
1046,-23.437500
1047,-19.531250
1048,-19.531250
1049,-19.531250
1050,-15.625000
1051,-15.625000
1052,-15.625000
1053,-15.625000
1054,-15.625000
1055,-11.718750
1056,-11.718750
1057,-11.718750
1058,-7.812500
1059,-7.812500
1060,-7.812500
1061,-7.812500
1062,-3.906250
1063,-3.906250
1064,-3.906250
1065,0.000000
1066,0.000000
1067,0.000000
1068,0.000000
1069,3.906250
1070,3.906250
1071,3.906250
1072,3.906250
1073,7.812500
1074,7.812500
1075,7.812500
1076,7.812500
1077,11.718750
1078,11.718750
1079,11.718750
1080,15.625000
1081,15.625000
1082,15.625000
1083,15.625000
1084,19.531250
1085,19.531250
1086,19.531250
1087,23.437500
1088,23.437500
1089,23.437500
1090,23.437500
1091,27.343750
1092,27.343750
1093,27.343750
1094,27.343750
1095,31.250000
1096,31.250000
1097,31.250000
1098,31.250000
1099,31.250000
1100,35.156250
1101,35.156250
1102,35.156250
1103,39.062500
1104,39.062500
1105,39.062500
1106,39.062500
1107,42.968750
1108,42.968750
1109,42.968750
1110,42.968750
1111,46.875000
1112,46.875000
1113,46.875000
1114,46.875000
1115,50.781250
1116,50.781250
1117,50.781250
1118,50.781250
1119,54.687500
1120,54.687500
1121,54.687500
1122,54.687500
1123,54.687500
1124,58.593750
1125,58.593750
1126,58.593750
1127,58.593750
1128,62.500000
1129,62.500000
1130,62.500000
1131,62.500000
1132,62.500000
1133,66.406250
1134,66.406250
1135,66.406250
1136,66.406250
1137,70.312500
1138,70.312500
1139,70.312500
1140,70.312500
1141,70.312500
1142,74.218750
1143,74.218750
1144,74.218750
1145,74.218750
1146,74.218750
1147,78.125000
1148,78.125000
1149,78.125000
1150,78.125000
1151,78.125000
1152,82.031250
1153,82.031250
1154,82.031250
1155,82.031250
1156,85.937500
1157,85.937500
1158,85.937500
1159,85.937500
1160,89.843750
1161,89.843750
1162,89.843750
1163,89.843750
1164,89.843750
1165,89.843750
1166,93.750000
1167,93.750000
1168,93.750000
1169,93.750000
1170,93.750000
1171,97.656250
1172,97.656250
1173,97.656250
1174,97.656250
1175,97.656250
1176,97.656250
1177,101.562500
1178,101.562500
1179,101.562500
1180,101.562500
1181,101.562500
1182,101.562500
1183,105.468750
1184,105.468750
1185,105.468750
1186,105.468750
1187,105.468750
1188,105.468750
1189,109.375000
1190,109.375000
1191,109.375000
1192,109.375000
1193,109.375000
1194,109.375000
1195,113.281250
1196,113.281250
1197,113.281250
1198,113.281250
1199,113.281250
1200,113.281250
1201,113.281250
1202,117.187500
1203,117.187500
1204,117.187500
1205,117.187500
1206,117.187500
1207,117.187500
1208,121.093750
1209,117.187500
1210,121.093750
1211,121.093750
1212,121.093750
1213,121.093750
1214,121.093750
1215,121.093750
1216,121.093750
1217,125.000000
1218,125.000000
1219,125.000000
1220,125.000000
1221,125.000000
1222,125.000000
1223,125.000000
1224,125.000000
1225,125.000000
1226,128.906250
1227,128.906250
1228,128.906250
1229,128.906250
1230,128.906250
1231,128.906250
1232,128.906250
1233,128.906250
1234,128.906250
1235,128.906250
1236,128.906250
1237,132.812500
1238,132.812500
1239,132.812500
1240,132.812500
1241,132.812500
1242,132.812500
1243,132.812500
1244,132.812500
1245,132.812500
1246,132.812500
1247,136.718750
1248,136.718750
1249,136.718750
1250,136.718750
1251,136.718750
1252,136.718750
1253,136.718750
1254,136.718750
1255,136.718750
1256,136.718750
1257,136.718750
1258,136.718750
1259,136.718750
1260,136.718750
1261,140.625000
1262,140.625000
1263,140.625000
1264,140.625000
1265,140.625000
1266,140.625000
1267,140.625000
1268,140.625000
1269,140.625000
1270,140.625000
1271,140.625000
1272,140.625000
1273,140.625000
1274,140.625000
1275,140.625000
1276,144.531250
1277,144.531250
1278,140.625000
1279,144.531250
1280,144.531250
1281,144.531250
1282,144.531250
1283,144.531250
1284,144.531250
1285,144.531250
1286,144.531250
1287,144.531250
1288,144.531250
1289,144.531250
1290,144.531250
1291,144.531250
1292,144.531250
1293,144.531250
1294,144.531250
1295,144.531250
1296,144.531250
1297,144.531250
1298,144.531250
1299,144.531250
1300,144.531250
1301,144.531250
1302,144.531250
1303,144.531250
1304,144.531250
1305,144.531250
1306,144.531250
1307,144.531250
1308,144.531250
