Channel              :,CH1
Frequency            :,1.010kHz
Period               :,0.990ms
PK-PK                :,328.1mV
Probe attenuation    :,1X
Voltage per ADC value:,0.244141mV
Time interval        :,1.00000us

index,CH1_Voltage(mV)
1,-78.125000
2,-78.125000
3,-78.125000
4,-74.218750
5,-74.218750
6,-74.218750
7,-74.218750
8,-70.312500
9,-70.312500
10,-70.312500
11,-70.312500
12,-70.312500
13,-66.406250
14,-66.406250
15,-66.406250
16,-66.406250
17,-62.500000
18,-62.500000
19,-58.593750
20,-58.593750
21,-58.593750
22,-58.593750
23,-54.687500
24,-54.687500
25,-54.687500
26,-54.687500
27,-50.781250
28,-50.781250
29,-50.781250
30,-50.781250
31,-46.875000
32,-46.875000
33,-46.875000
34,-42.968750
35,-42.968750
36,-42.968750
37,-39.062500
38,-39.062500
39,-39.062500
40,-39.062500
41,-35.156250
42,-35.156250
43,-35.156250
44,-35.156250
45,-35.156250
46,-31.250000
47,-31.250000
48,-31.250000
49,-27.343750
50,-27.343750
51,-27.343750
52,-27.343750
53,-23.437500
54,-23.437500
55,-23.437500
56,-19.531250
57,-19.531250
58,-19.531250
59,-15.625000
60,-15.625000
61,-15.625000
62,-15.625000
63,-15.625000
64,-11.718750
65,-11.718750
66,-11.718750
67,-7.812500
68,-7.812500
69,-7.812500
70,-7.812500
71,-3.906250
72,-3.906250
73,-3.906250
74,-3.906250
75,0.000000
76,0.000000
77,0.000000
78,0.000000
79,3.906250
80,3.906250
81,3.906250
82,3.906250
83,7.812500
84,7.812500
85,7.812500
86,11.718750
87,11.718750
88,11.718750
89,11.718750
90,15.625000
91,15.625000
92,15.625000
93,15.625000
94,19.531250
95,19.531250
96,19.531250
97,23.437500
98,23.437500
99,23.437500
100,23.437500
101,23.437500
102,27.343750
103,27.343750
104,27.343750
105,27.343750
106,27.343750
107,31.250000
108,31.250000
109,31.250000
110,35.156250
111,35.156250
112,35.156250
113,35.156250
114,39.062500
115,39.062500
116,39.062500
117,39.062500
118,42.968750
119,42.968750
120,42.968750
121,42.968750
122,46.875000
123,46.875000
124,46.875000
125,46.875000
126,50.781250
127,50.781250
128,50.781250
129,50.781250
130,50.781250
131,54.687500
132,54.687500
133,54.687500
134,54.687500
135,58.593750
136,58.593750
137,58.593750
138,62.500000
139,62.500000
140,62.500000
141,62.500000
142,62.500000
143,62.500000
144,62.500000
145,66.406250
146,66.406250
147,66.406250
148,70.312500
149,70.312500
150,70.312500
151,70.312500
152,70.312500
153,74.218750
154,74.218750
155,74.218750
156,74.218750
157,74.218750
158,74.218750
159,78.125000
160,78.125000
161,78.125000
162,78.125000
163,82.031250
164,82.031250
165,82.031250
166,82.031250
167,85.937500
168,85.937500
169,85.937500
170,85.937500
171,85.937500
172,85.937500
173,89.843750
174,85.937500
175,89.843750
176,89.843750
177,89.843750
178,93.750000
179,93.750000
180,93.750000
181,93.750000
182,93.750000
183,93.750000
184,97.656250
185,97.656250
186,97.656250
187,97.656250
188,97.656250
189,101.562500
190,97.656250
191,101.562500
192,101.562500
193,101.562500
194,101.562500
195,101.562500
196,101.562500
197,105.468750
198,105.468750
199,105.468750
200,105.468750
201,105.468750
202,105.468750
203,109.375000
204,109.375000
205,109.375000
206,109.375000
207,109.375000
208,109.375000
209,109.375000
210,109.375000
211,113.281250
212,113.281250
213,113.281250
214,113.281250
215,113.281250
216,113.281250
217,113.281250
218,117.187500
219,117.187500
220,117.187500
221,117.187500
222,117.187500
223,117.187500
224,117.187500
225,117.187500
226,117.187500
227,121.093750
228,121.093750
229,121.093750
230,121.093750
231,121.093750
232,121.093750
233,121.093750
234,121.093750
235,121.093750
236,125.000000
237,125.000000
238,125.000000
239,125.000000
240,125.000000
241,125.000000
242,125.000000
243,125.000000
244,125.000000
245,128.906250
246,128.906250
247,128.906250
248,128.906250
249,128.906250
250,128.906250
251,128.906250
252,128.906250
253,128.906250
254,128.906250
255,128.906250
256,128.906250
257,132.812500
258,132.812500
259,132.812500
260,132.812500
261,132.812500
262,132.812500
263,132.812500
264,132.812500
265,132.812500
266,132.812500
267,132.812500
268,136.718750
269,136.718750
270,132.812500
271,136.718750
272,136.718750
273,136.718750
274,136.718750
275,136.718750
276,136.718750
277,136.718750
278,136.718750
279,136.718750
280,136.718750
281,136.718750
282,136.718750
283,136.718750
284,136.718750
285,140.625000
286,136.718750
287,140.625000
288,140.625000
289,140.625000
290,140.625000
291,140.625000
292,136.718750
293,140.625000
294,140.625000
295,140.625000
296,140.625000
297,140.625000
298,140.625000
299,140.625000
300,140.625000
301,140.625000
302,140.625000
303,140.625000
304,140.625000
305,140.625000
306,140.625000
307,140.625000
308,140.625000
309,140.625000
310,140.625000
311,140.625000
312,140.625000
313,140.625000
314,140.625000
315,140.625000
316,140.625000
317,140.625000
318,140.625000
319,140.625000
320,140.625000
321,140.625000
322,140.625000
323,140.625000
324,140.625000
325,140.625000
326,140.625000
327,140.625000
328,140.625000
329,140.625000
330,140.625000
331,140.625000
332,140.625000
333,140.625000
334,140.625000
335,140.625000
336,140.625000
337,140.625000
338,140.625000
339,140.625000
340,140.625000
341,136.718750
342,140.625000
343,140.625000
344,140.625000
345,140.625000
346,140.625000
347,140.625000
348,140.625000
349,140.625000
350,136.718750
351,136.718750
352,136.718750
353,140.625000
354,140.625000
355,140.625000
356,136.718750
357,136.718750
358,136.718750
359,136.718750
360,136.718750
361,136.718750
362,136.718750
363,136.718750
364,136.718750
365,136.718750
366,136.718750
367,136.718750
368,136.718750
369,136.718750
370,136.718750
371,132.812500
372,132.812500
373,132.812500
374,132.812500
375,132.812500
376,132.812500
377,132.812500
378,132.812500
379,132.812500
380,132.812500
381,132.812500
382,132.812500
383,132.812500
384,132.812500
385,132.812500
386,128.906250
387,128.906250
388,128.906250
389,128.906250
390,128.906250
391,128.906250
392,128.906250
393,128.906250
394,128.906250
395,128.906250
396,128.906250
397,128.906250
398,125.000000
399,125.000000
400,125.000000
401,125.000000
402,125.000000
403,125.000000
404,125.000000
405,125.000000
406,125.000000
407,121.093750
408,121.093750
409,121.093750
410,121.093750
411,121.093750
412,121.093750
413,121.093750
414,121.093750
415,121.093750
416,117.187500
417,117.187500
418,117.187500
419,117.187500
420,117.187500
421,117.187500
422,117.187500
423,117.187500
424,113.281250
425,113.281250
426,113.281250
427,113.281250
428,113.281250
429,113.281250
430,113.281250
431,109.375000
432,109.375000
433,109.375000
434,109.375000
435,109.375000
436,109.375000
437,109.375000
438,109.375000
439,105.468750
440,105.468750
441,105.468750
442,105.468750
443,105.468750
444,105.468750
445,101.562500
446,101.562500
447,101.562500
448,101.562500
449,101.562500
450,97.656250
451,97.656250
452,97.656250
453,97.656250
454,97.656250
455,97.656250
456,97.656250
457,93.750000
458,93.750000
459,93.750000
460,93.750000
461,93.750000
462,89.843750
463,89.843750
464,89.843750
465,89.843750
466,89.843750
467,89.843750
468,85.937500
469,85.937500
470,85.937500
471,85.937500
472,82.031250
473,82.031250
474,82.031250
475,82.031250
476,82.031250
477,82.031250
478,78.125000
479,78.125000
480,78.125000
481,78.125000
482,74.218750
483,74.218750
484,74.218750
485,74.218750
486,74.218750
487,74.218750
488,74.218750
489,70.312500
490,70.312500
491,70.312500
492,66.406250
493,66.406250
494,66.406250
495,66.406250
496,66.406250
497,66.406250
498,62.500000
499,62.500000
500,62.500000
501,58.593750
502,58.593750
503,58.593750
504,58.593750
505,58.593750
506,54.687500
507,54.687500
508,54.687500
509,54.687500
510,50.781250
511,50.781250
512,50.781250
513,50.781250
514,50.781250
515,46.875000
516,46.875000
517,46.875000
518,46.875000
519,42.968750
520,42.968750
521,42.968750
522,42.968750
523,39.062500
524,39.062500
525,39.062500
526,39.062500
527,39.062500
528,35.156250
529,35.156250
530,35.156250
531,35.156250
532,31.250000
533,31.250000
534,31.250000
535,31.250000
536,27.343750
537,27.343750
538,27.343750
539,23.437500
540,23.437500
541,23.437500
542,23.437500
543,19.531250
544,19.531250
545,19.531250
546,19.531250
547,15.625000
548,15.625000
549,15.625000
550,15.625000
551,11.718750
552,11.718750
553,11.718750
554,11.718750
555,7.812500
556,7.812500
557,7.812500
558,3.906250
559,3.906250
560,3.906250
561,3.906250
562,0.000000
563,0.000000
564,0.000000
565,0.000000
566,0.000000
567,-3.906250
568,-3.906250
569,-3.906250
570,-7.812500
571,-7.812500
572,-7.812500
573,-7.812500
574,-11.718750
575,-11.718750
576,-11.718750
577,-11.718750
578,-15.625000
579,-15.625000
580,-19.531250
581,-19.531250
582,-19.531250
583,-19.531250
584,-19.531250
585,-23.437500
586,-23.437500
587,-23.437500
588,-27.343750
589,-27.343750
590,-27.343750
591,-31.250000
592,-31.250000
593,-31.250000
594,-31.250000
595,-31.250000
596,-35.156250
597,-35.156250
598,-35.156250
599,-39.062500
600,-39.062500
601,-39.062500
602,-42.968750
603,-42.968750
604,-42.968750
605,-42.968750
606,-42.968750
607,-46.875000
608,-46.875000
609,-46.875000
610,-50.781250
611,-50.781250
612,-50.781250
613,-50.781250
614,-54.687500
615,-54.687500
616,-54.687500
617,-54.687500
618,-58.593750
619,-58.593750
620,-62.500000
621,-62.500000
622,-62.500000
623,-62.500000
624,-62.500000
625,-66.406250
626,-66.406250
627,-66.406250
628,-66.406250
629,-70.312500
630,-70.312500
631,-70.312500
632,-74.218750
633,-74.218750
634,-74.218750
635,-74.218750
636,-78.125000
637,-78.125000
638,-78.125000
639,-78.125000
640,-82.031250
641,-82.031250
642,-82.031250
643,-82.031250
644,-85.937500
645,-85.937500
646,-85.937500
647,-85.937500
648,-89.843750
649,-89.843750
650,-89.843750
651,-89.843750
652,-93.750000
653,-93.750000
654,-93.750000
655,-93.750000
656,-97.656250
657,-97.656250
658,-97.656250
659,-97.656250
660,-101.562500
661,-101.562500
662,-101.562500
663,-101.562500
664,-101.562500
665,-105.468750
666,-105.468750
667,-105.468750
668,-105.468750
669,-109.375000
670,-109.375000
671,-109.375000
672,-113.281250
673,-113.281250
674,-113.281250
675,-113.281250
676,-113.281250
677,-117.187500
678,-117.187500
679,-117.187500
680,-121.093750
681,-121.093750
682,-121.093750
683,-121.093750
684,-121.093750
685,-121.093750
686,-121.093750
687,-125.000000
688,-125.000000
689,-125.000000
690,-125.000000
691,-128.906250
692,-128.906250
693,-128.906250
694,-128.906250
695,-132.812500
696,-132.812500
697,-132.812500
698,-132.812500
699,-132.812500
700,-136.718750
701,-136.718750
702,-136.718750
703,-136.718750
704,-136.718750
705,-136.718750
706,-140.625000
707,-140.625000
708,-140.625000
709,-140.625000
710,-144.531250
711,-144.531250
712,-144.531250
713,-144.531250
714,-144.531250
715,-144.531250
716,-148.437500
717,-148.437500
718,-148.437500
719,-148.437500
720,-152.343750
721,-152.343750
722,-152.343750
723,-152.343750
724,-152.343750
725,-152.343750
726,-152.343750
727,-156.250000
728,-156.250000
729,-156.250000
730,-156.250000
731,-156.250000
732,-156.250000
733,-156.250000
734,-156.250000
735,-160.156250
736,-160.156250
737,-160.156250
738,-160.156250
739,-160.156250
740,-164.062500
741,-164.062500
742,-164.062500
743,-164.062500
744,-164.062500
745,-164.062500
746,-164.062500
747,-164.062500
748,-167.968750
749,-167.968750
750,-167.968750
751,-167.968750
752,-167.968750
753,-167.968750
754,-167.968750
755,-167.968750
756,-171.875000
757,-167.968750
758,-171.875000
759,-171.875000
760,-171.875000
761,-171.875000
762,-171.875000
763,-171.875000
764,-171.875000
765,-171.875000
766,-171.875000
767,-175.781250
768,-175.781250
769,-175.781250
770,-175.781250
771,-175.781250
772,-175.781250
773,-175.781250
774,-175.781250
775,-175.781250
776,-175.781250
777,-175.781250
778,-175.781250
779,-175.781250
780,-179.687500
781,-179.687500
782,-179.687500
783,-179.687500
784,-179.687500
785,-179.687500
786,-179.687500
787,-179.687500
788,-179.687500
789,-179.687500
790,-179.687500
791,-179.687500
792,-179.687500
793,-179.687500
794,-179.687500
795,-179.687500
796,-179.687500
797,-179.687500
798,-179.687500
799,-179.687500
800,-183.593750
801,-183.593750
802,-183.593750
803,-183.593750
804,-183.593750
805,-179.687500
806,-183.593750
807,-183.593750
808,-183.593750
809,-183.593750
810,-183.593750
811,-183.593750
812,-183.593750
813,-183.593750
814,-183.593750
815,-183.593750
816,-183.593750
817,-183.593750
818,-183.593750
819,-183.593750
820,-183.593750
821,-183.593750
822,-183.593750
823,-179.687500
824,-183.593750
825,-183.593750
826,-183.593750
827,-183.593750
828,-183.593750
829,-183.593750
830,-183.593750
831,-183.593750
832,-183.593750
833,-183.593750
834,-179.687500
835,-179.687500
836,-179.687500
837,-179.687500
838,-179.687500
839,-179.687500
840,-179.687500
841,-179.687500
842,-179.687500
843,-179.687500
844,-179.687500
845,-179.687500
846,-179.687500
847,-179.687500
848,-179.687500
849,-179.687500
850,-179.687500
851,-179.687500
852,-179.687500
853,-175.781250
854,-175.781250
855,-175.781250
856,-175.781250
857,-175.781250
858,-175.781250
859,-175.781250
860,-175.781250
861,-175.781250
862,-175.781250
863,-175.781250
864,-175.781250
865,-175.781250
866,-171.875000
867,-171.875000
868,-171.875000
869,-171.875000
870,-171.875000
871,-171.875000
872,-171.875000
873,-171.875000
874,-171.875000
875,-167.968750
876,-167.968750
877,-167.968750
878,-167.968750
879,-167.968750
880,-167.968750
881,-167.968750
882,-167.968750
883,-167.968750
884,-164.062500
885,-164.062500
886,-164.062500
887,-164.062500
888,-164.062500
889,-164.062500
890,-164.062500
891,-164.062500
892,-160.156250
893,-160.156250
894,-160.156250
895,-160.156250
896,-156.250000
897,-156.250000
898,-156.250000
899,-156.250000
900,-156.250000
901,-156.250000
902,-156.250000
903,-156.250000
904,-152.343750
905,-152.343750
906,-152.343750
907,-152.343750
908,-152.343750
909,-152.343750
910,-148.437500
911,-148.437500
912,-148.437500
913,-148.437500
914,-144.531250
915,-144.531250
916,-144.531250
917,-144.531250
918,-144.531250
919,-144.531250
920,-144.531250
921,-140.625000
922,-140.625000
923,-140.625000
924,-140.625000
925,-136.718750
926,-136.718750
927,-136.718750
928,-136.718750
929,-136.718750
930,-136.718750
931,-132.812500
932,-132.812500
933,-132.812500
934,-132.812500
935,-132.812500
936,-128.906250
937,-128.906250
938,-128.906250
939,-128.906250
940,-128.906250
941,-125.000000
942,-125.000000
943,-125.000000
944,-125.000000
945,-121.093750
946,-121.093750
947,-121.093750
948,-121.093750
949,-117.187500
950,-117.187500
951,-117.187500
952,-117.187500
953,-117.187500
954,-113.281250
955,-113.281250
956,-113.281250
957,-113.281250
958,-109.375000
959,-109.375000
960,-109.375000
961,-109.375000
962,-109.375000
963,-105.468750
964,-105.468750
965,-101.562500
966,-101.562500
967,-101.562500
968,-101.562500
969,-101.562500
970,-101.562500
971,-97.656250
972,-97.656250
973,-97.656250
974,-97.656250
975,-93.750000
976,-93.750000
977,-93.750000
978,-93.750000
979,-89.843750
980,-89.843750
981,-89.843750
982,-89.843750
983,-85.937500
984,-85.937500
985,-85.937500
986,-85.937500
987,-82.031250
988,-82.031250
989,-82.031250
990,-82.031250
991,-78.125000
992,-78.125000
993,-78.125000
994,-74.218750
995,-74.218750
996,-74.218750
997,-74.218750
998,-70.312500
999,-70.312500
1000,-70.312500
1001,-70.312500
1002,-66.406250
1003,-66.406250
1004,-66.406250
1005,-62.500000
1006,-62.500000
1007,-62.500000
1008,-62.500000
1009,-62.500000
1010,-58.593750
1011,-58.593750
1012,-58.593750
1013,-54.687500
1014,-54.687500
1015,-54.687500
1016,-54.687500
1017,-50.781250
1018,-50.781250
1019,-50.781250
1020,-50.781250
1021,-46.875000
1022,-46.875000
1023,-46.875000
1024,-42.968750
1025,-42.968750
1026,-42.968750
1027,-42.968750
1028,-39.062500
1029,-39.062500
1030,-39.062500
1031,-39.062500
1032,-35.156250
1033,-35.156250
1034,-35.156250
1035,-31.250000
1036,-31.250000
1037,-31.250000
1038,-31.250000
1039,-27.343750
1040,-27.343750
1041,-27.343750
1042,-23.437500
1043,-23.437500
1044,-23.437500
1045,-23.437500
1046,-19.531250
1047,-19.531250
1048,-19.531250
1049,-19.531250
1050,-15.625000
1051,-15.625000
1052,-15.625000
1053,-11.718750
1054,-11.718750
1055,-11.718750
1056,-7.812500
1057,-7.812500
1058,-7.812500
1059,-7.812500
1060,-7.812500
1061,-3.906250
1062,-3.906250
1063,-3.906250
1064,0.000000
1065,0.000000
1066,0.000000
1067,0.000000
1068,3.906250
1069,3.906250
1070,3.906250
1071,3.906250
1072,7.812500
1073,7.812500
1074,7.812500
1075,11.718750
1076,11.718750
1077,11.718750
1078,11.718750
1079,15.625000
1080,15.625000
1081,15.625000
1082,15.625000
1083,19.531250
1084,19.531250
1085,19.531250
1086,19.531250
1087,23.437500
1088,23.437500
1089,23.437500
1090,23.437500
1091,27.343750
1092,27.343750
1093,27.343750
1094,27.343750
1095,31.250000
1096,31.250000
1097,31.250000
1098,31.250000
1099,31.250000
1100,35.156250
1101,35.156250
1102,39.062500
1103,39.062500
1104,39.062500
1105,39.062500
1106,39.062500
1107,42.968750
1108,42.968750
1109,42.968750
1110,42.968750
1111,46.875000
1112,46.875000
1113,46.875000
1114,46.875000
1115,50.781250
1116,50.781250
1117,50.781250
1118,50.781250
1119,50.781250
1120,54.687500
1121,54.687500
1122,54.687500
1123,54.687500
1124,58.593750
1125,58.593750
1126,58.593750
1127,58.593750
1128,58.593750
1129,62.500000
1130,62.500000
1131,62.500000
1132,62.500000
1133,66.406250
1134,66.406250
1135,66.406250
1136,66.406250
1137,66.406250
1138,70.312500
1139,70.312500
1140,70.312500
1141,70.312500
1142,70.312500
1143,74.218750
1144,74.218750
1145,74.218750
1146,74.218750
1147,78.125000
1148,74.218750
1149,78.125000
1150,78.125000
1151,78.125000
1152,78.125000
1153,82.031250
1154,82.031250
1155,82.031250
1156,82.031250
1157,82.031250
1158,85.937500
1159,85.937500
1160,85.937500
1161,85.937500
1162,85.937500
1163,89.843750
1164,89.843750
1165,89.843750
1166,89.843750
1167,89.843750
1168,89.843750
1169,89.843750
1170,93.750000
1171,93.750000
1172,93.750000
1173,93.750000
1174,97.656250
1175,97.656250
1176,97.656250
1177,97.656250
1178,97.656250
1179,97.656250
1180,101.562500
1181,101.562500
1182,101.562500
1183,101.562500
1184,101.562500
1185,101.562500
1186,101.562500
1187,105.468750
1188,105.468750
1189,105.468750
1190,105.468750
1191,105.468750
1192,109.375000
1193,109.375000
1194,109.375000
1195,109.375000
1196,109.375000
1197,109.375000
1198,109.375000
1199,109.375000
1200,109.375000
1201,113.281250
1202,113.281250
1203,113.281250
1204,113.281250
1205,113.281250
1206,113.281250
1207,117.187500
1208,117.187500
1209,117.187500
1210,117.187500
1211,117.187500
1212,117.187500
1213,117.187500
1214,117.187500
1215,121.093750
1216,121.093750
1217,121.093750
1218,121.093750
1219,121.093750
1220,121.093750
1221,121.093750
1222,121.093750
1223,125.000000
1224,125.000000
1225,125.000000
1226,125.000000
1227,125.000000
1228,125.000000
1229,125.000000
1230,125.000000
1231,128.906250
1232,125.000000
1233,128.906250
1234,128.906250
1235,128.906250
1236,128.906250
1237,128.906250
1238,128.906250
1239,128.906250
1240,128.906250
1241,128.906250
1242,128.906250
1243,128.906250
1244,128.906250
1245,132.812500
1246,128.906250
1247,132.812500
1248,132.812500
1249,132.812500
1250,132.812500
1251,132.812500
1252,132.812500
1253,132.812500
1254,132.812500
1255,132.812500
1256,132.812500
1257,132.812500
1258,132.812500
1259,132.812500
1260,132.812500
1261,136.718750
1262,136.718750
1263,136.718750
1264,136.718750
1265,136.718750
1266,136.718750
1267,136.718750
1268,136.718750
1269,136.718750
1270,136.718750
1271,136.718750
1272,136.718750
1273,136.718750
1274,136.718750
1275,136.718750
1276,136.718750
1277,136.718750
1278,136.718750
1279,140.625000
1280,140.625000
1281,140.625000
1282,140.625000
1283,140.625000
1284,140.625000
1285,140.625000
1286,140.625000
1287,140.625000
1288,140.625000
1289,140.625000
1290,140.625000
1291,140.625000
1292,140.625000
1293,140.625000
1294,140.625000
1295,140.625000
1296,140.625000
1297,140.625000
1298,140.625000
1299,140.625000
1300,140.625000
1301,140.625000
1302,140.625000
1303,140.625000
1304,140.625000
1305,140.625000
1306,140.625000
1307,140.625000
1308,140.625000
1309,140.625000
1310,140.625000
