Channel              :,CH1
Frequency            :,1.010kHz
Period               :,0.990ms
PK-PK                :,203.1mV
Probe attenuation    :,1X
Voltage per ADC value:,0.244141mV
Time interval        :,1.00000us

index,CH1_Voltage(mV)
1,-54.687500
2,-54.687500
3,-50.781250
4,-50.781250
5,-50.781250
6,-50.781250
7,-50.781250
8,-50.781250
9,-46.875000
10,-46.875000
11,-46.875000
12,-46.875000
13,-46.875000
14,-46.875000
15,-46.875000
16,-42.968750
17,-46.875000
18,-42.968750
19,-42.968750
20,-42.968750
21,-42.968750
22,-42.968750
23,-39.062500
24,-39.062500
25,-39.062500
26,-39.062500
27,-39.062500
28,-39.062500
29,-35.156250
30,-35.156250
31,-35.156250
32,-35.156250
33,-35.156250
34,-35.156250
35,-35.156250
36,-31.250000
37,-31.250000
38,-31.250000
39,-31.250000
40,-31.250000
41,-31.250000
42,-27.343750
43,-27.343750
44,-27.343750
45,-27.343750
46,-27.343750
47,-27.343750
48,-23.437500
49,-23.437500
50,-23.437500
51,-23.437500
52,-23.437500
53,-23.437500
54,-19.531250
55,-19.531250
56,-19.531250
57,-19.531250
58,-19.531250
59,-15.625000
60,-15.625000
61,-15.625000
62,-15.625000
63,-15.625000
64,-15.625000
65,-15.625000
66,-11.718750
67,-11.718750
68,-11.718750
69,-11.718750
70,-11.718750
71,-11.718750
72,-11.718750
73,-7.812500
74,-7.812500
75,-7.812500
76,-3.906250
77,-7.812500
78,-7.812500
79,-3.906250
80,-3.906250
81,-3.906250
82,-3.906250
83,-3.906250
84,-3.906250
85,0.000000
86,0.000000
87,0.000000
88,0.000000
89,0.000000
90,0.000000
91,0.000000
92,3.906250
93,3.906250
94,3.906250
95,3.906250
96,3.906250
97,3.906250
98,7.812500
99,7.812500
100,7.812500
101,7.812500
102,7.812500
103,7.812500
104,7.812500
105,11.718750
106,11.718750
107,11.718750
108,15.625000
109,15.625000
110,15.625000
111,11.718750
112,15.625000
113,15.625000
114,15.625000
115,15.625000
116,19.531250
117,19.531250
118,19.531250
119,19.531250
120,19.531250
121,19.531250
122,19.531250
123,19.531250
124,23.437500
125,23.437500
126,23.437500
127,23.437500
128,23.437500
129,23.437500
130,27.343750
131,27.343750
132,27.343750
133,27.343750
134,27.343750
135,27.343750
136,27.343750
137,27.343750
138,31.250000
139,31.250000
140,31.250000
141,31.250000
142,31.250000
143,31.250000
144,31.250000
145,31.250000
146,35.156250
147,35.156250
148,35.156250
149,35.156250
150,35.156250
151,35.156250
152,35.156250
153,35.156250
154,39.062500
155,39.062500
156,39.062500
157,39.062500
158,39.062500
159,39.062500
160,39.062500
161,39.062500
162,42.968750
163,42.968750
164,42.968750
165,42.968750
166,42.968750
167,42.968750
168,46.875000
169,46.875000
170,46.875000
171,46.875000
172,46.875000
173,46.875000
174,46.875000
175,46.875000
176,46.875000
177,46.875000
178,50.781250
179,50.781250
180,46.875000
181,50.781250
182,50.781250
183,50.781250
184,50.781250
185,50.781250
186,54.687500
187,50.781250
188,54.687500
189,54.687500
190,54.687500
191,54.687500
192,54.687500
193,54.687500
194,54.687500
195,54.687500
196,58.593750
197,58.593750
198,58.593750
199,58.593750
200,58.593750
201,58.593750
202,58.593750
203,58.593750
204,58.593750
205,62.500000
206,62.500000
207,58.593750
208,62.500000
209,62.500000
210,62.500000
211,62.500000
212,62.500000
213,62.500000
214,62.500000
215,62.500000
216,66.406250
217,66.406250
218,66.406250
219,66.406250
220,66.406250
221,66.406250
222,66.406250
223,66.406250
224,66.406250
225,66.406250
226,66.406250
227,66.406250
228,66.406250
229,70.312500
230,70.312500
231,70.312500
232,70.312500
233,70.312500
234,70.312500
235,70.312500
236,70.312500
237,70.312500
238,70.312500
239,70.312500
240,70.312500
241,74.218750
242,70.312500
243,70.312500
244,74.218750
245,74.218750
246,74.218750
247,74.218750
248,74.218750
249,74.218750
250,74.218750
251,74.218750
252,74.218750
253,74.218750
254,74.218750
255,74.218750
256,74.218750
257,74.218750
258,78.125000
259,74.218750
260,78.125000
261,74.218750
262,78.125000
263,78.125000
264,78.125000
265,78.125000
266,78.125000
267,78.125000
268,78.125000
269,78.125000
270,78.125000
271,78.125000
272,78.125000
273,78.125000
274,78.125000
275,78.125000
276,78.125000
277,78.125000
278,78.125000
279,78.125000
280,78.125000
281,78.125000
282,78.125000
283,78.125000
284,82.031250
285,82.031250
286,82.031250
287,82.031250
288,82.031250
289,82.031250
290,82.031250
291,82.031250
292,82.031250
293,82.031250
294,82.031250
295,82.031250
296,82.031250
297,82.031250
298,82.031250
299,82.031250
300,82.031250
301,82.031250
302,82.031250
303,82.031250
304,82.031250
305,82.031250
306,82.031250
307,82.031250
308,82.031250
309,82.031250
310,82.031250
311,82.031250
312,82.031250
313,82.031250
314,82.031250
315,82.031250
316,82.031250
317,82.031250
318,82.031250
319,82.031250
320,82.031250
321,82.031250
322,82.031250
323,82.031250
324,82.031250
325,82.031250
326,82.031250
327,82.031250
328,82.031250
329,82.031250
330,82.031250
331,82.031250
332,82.031250
333,82.031250
334,82.031250
335,82.031250
336,82.031250
337,82.031250
338,82.031250
339,82.031250
340,82.031250
341,82.031250
342,82.031250
343,82.031250
344,82.031250
345,82.031250
346,82.031250
347,82.031250
348,82.031250
349,82.031250
350,82.031250
351,82.031250
352,82.031250
353,82.031250
354,82.031250
355,82.031250
356,82.031250
357,82.031250
358,82.031250
359,82.031250
360,82.031250
361,82.031250
362,82.031250
363,82.031250
364,78.125000
365,78.125000
366,78.125000
367,78.125000
368,78.125000
369,78.125000
370,78.125000
371,78.125000
372,78.125000
373,78.125000
374,78.125000
375,78.125000
376,78.125000
377,78.125000
378,78.125000
379,78.125000
380,78.125000
381,78.125000
382,78.125000
383,78.125000
384,78.125000
385,74.218750
386,78.125000
387,74.218750
388,74.218750
389,74.218750
390,74.218750
391,74.218750
392,74.218750
393,74.218750
394,74.218750
395,74.218750
396,74.218750
397,74.218750
398,74.218750
399,74.218750
400,74.218750
401,74.218750
402,74.218750
403,70.312500
404,70.312500
405,70.312500
406,74.218750
407,70.312500
408,70.312500
409,70.312500
410,70.312500
411,70.312500
412,70.312500
413,70.312500
414,70.312500
415,70.312500
416,66.406250
417,66.406250
418,66.406250
419,66.406250
420,66.406250
421,66.406250
422,66.406250
423,66.406250
424,66.406250
425,66.406250
426,66.406250
427,66.406250
428,66.406250
429,62.500000
430,62.500000
431,62.500000
432,62.500000
433,62.500000
434,62.500000
435,62.500000
436,62.500000
437,62.500000
438,62.500000
439,62.500000
440,58.593750
441,58.593750
442,58.593750
443,58.593750
444,58.593750
445,58.593750
446,58.593750
447,58.593750
448,58.593750
449,54.687500
450,54.687500
451,54.687500
452,54.687500
453,54.687500
454,54.687500
455,54.687500
456,54.687500
457,54.687500
458,50.781250
459,50.781250
460,50.781250
461,50.781250
462,50.781250
463,50.781250
464,50.781250
465,50.781250
466,50.781250
467,46.875000
468,46.875000
469,46.875000
470,46.875000
471,46.875000
472,46.875000
473,46.875000
474,46.875000
475,46.875000
476,46.875000
477,42.968750
478,42.968750
479,42.968750
480,42.968750
481,42.968750
482,42.968750
483,42.968750
484,42.968750
485,39.062500
486,39.062500
487,39.062500
488,39.062500
489,39.062500
490,39.062500
491,39.062500
492,39.062500
493,35.156250
494,35.156250
495,35.156250
496,35.156250
497,35.156250
498,35.156250
499,35.156250
500,35.156250
501,31.250000
502,31.250000
503,31.250000
504,31.250000
505,31.250000
506,31.250000
507,27.343750
508,27.343750
509,27.343750
510,27.343750
511,27.343750
512,27.343750
513,23.437500
514,23.437500
515,23.437500
516,23.437500
517,23.437500
518,23.437500
519,23.437500
520,19.531250
521,19.531250
522,19.531250
523,19.531250
524,19.531250
525,19.531250
526,19.531250
527,15.625000
528,15.625000
529,15.625000
530,15.625000
531,15.625000
532,15.625000
533,15.625000
534,15.625000
535,11.718750
536,11.718750
537,11.718750
538,11.718750
539,11.718750
540,11.718750
541,7.812500
542,7.812500
543,7.812500
544,7.812500
545,7.812500
546,3.906250
547,3.906250
548,3.906250
549,3.906250
550,3.906250
551,3.906250
552,3.906250
553,3.906250
554,0.000000
555,0.000000
556,0.000000
557,0.000000
558,0.000000
559,0.000000
560,-3.906250
561,-3.906250
562,-3.906250
563,-3.906250
564,-3.906250
565,-3.906250
566,-3.906250
567,-7.812500
568,-7.812500
569,-7.812500
570,-7.812500
571,-7.812500
572,-7.812500
573,-11.718750
574,-11.718750
575,-11.718750
576,-11.718750
577,-11.718750
578,-15.625000
579,-15.625000
580,-15.625000
581,-15.625000
582,-15.625000
583,-15.625000
584,-15.625000
585,-19.531250
586,-19.531250
587,-19.531250
588,-19.531250
589,-19.531250
590,-23.437500
591,-19.531250
592,-23.437500
593,-23.437500
594,-23.437500
595,-23.437500
596,-23.437500
597,-27.343750
598,-27.343750
599,-27.343750
600,-27.343750
601,-27.343750
602,-27.343750
603,-27.343750
604,-31.250000
605,-31.250000
606,-31.250000
607,-31.250000
608,-31.250000
609,-31.250000
610,-35.156250
611,-35.156250
612,-35.156250
613,-35.156250
614,-39.062500
615,-35.156250
616,-39.062500
617,-39.062500
618,-39.062500
619,-39.062500
620,-39.062500
621,-42.968750
622,-42.968750
623,-42.968750
624,-42.968750
625,-42.968750
626,-42.968750
627,-42.968750
628,-42.968750
629,-46.875000
630,-46.875000
631,-46.875000
632,-46.875000
633,-46.875000
634,-50.781250
635,-50.781250
636,-50.781250
637,-50.781250
638,-50.781250
639,-50.781250
640,-50.781250
641,-54.687500
642,-54.687500
643,-54.687500
644,-54.687500
645,-54.687500
646,-54.687500
647,-54.687500
648,-58.593750
649,-58.593750
650,-58.593750
651,-58.593750
652,-58.593750
653,-58.593750
654,-58.593750
655,-58.593750
656,-62.500000
657,-62.500000
658,-62.500000
659,-62.500000
660,-66.406250
661,-66.406250
662,-66.406250
663,-66.406250
664,-66.406250
665,-66.406250
666,-66.406250
667,-66.406250
668,-70.312500
669,-70.312500
670,-70.312500
671,-70.312500
672,-70.312500
673,-70.312500
674,-70.312500
675,-70.312500
676,-74.218750
677,-74.218750
678,-74.218750
679,-74.218750
680,-74.218750
681,-74.218750
682,-74.218750
683,-78.125000
684,-78.125000
685,-78.125000
686,-78.125000
687,-78.125000
688,-78.125000
689,-78.125000
690,-78.125000
691,-82.031250
692,-82.031250
693,-82.031250
694,-82.031250
695,-82.031250
696,-82.031250
697,-82.031250
698,-82.031250
699,-85.937500
700,-85.937500
701,-85.937500
702,-85.937500
703,-85.937500
704,-85.937500
705,-85.937500
706,-85.937500
707,-89.843750
708,-89.843750
709,-89.843750
710,-89.843750
711,-89.843750
712,-89.843750
713,-89.843750
714,-89.843750
715,-89.843750
716,-89.843750
717,-93.750000
718,-93.750000
719,-93.750000
720,-93.750000
721,-93.750000
722,-93.750000
723,-93.750000
724,-93.750000
725,-93.750000
726,-97.656250
727,-97.656250
728,-97.656250
729,-97.656250
730,-97.656250
731,-97.656250
732,-97.656250
733,-97.656250
734,-97.656250
735,-97.656250
736,-97.656250
737,-101.562500
738,-101.562500
739,-101.562500
740,-101.562500
741,-101.562500
742,-101.562500
743,-101.562500
744,-101.562500
745,-101.562500
746,-101.562500
747,-101.562500
748,-105.468750
749,-105.468750
750,-105.468750
751,-105.468750
752,-105.468750
753,-105.468750
754,-105.468750
755,-105.468750
756,-105.468750
757,-105.468750
758,-105.468750
759,-105.468750
760,-105.468750
761,-105.468750
762,-109.375000
763,-105.468750
764,-109.375000
765,-105.468750
766,-105.468750
767,-109.375000
768,-109.375000
769,-109.375000
770,-109.375000
771,-109.375000
772,-109.375000
773,-109.375000
774,-109.375000
775,-109.375000
776,-109.375000
777,-109.375000
778,-109.375000
779,-109.375000
780,-109.375000
781,-109.375000
782,-113.281250
783,-113.281250
784,-113.281250
785,-113.281250
786,-109.375000
787,-109.375000
788,-113.281250
789,-113.281250
790,-113.281250
791,-113.281250
792,-113.281250
793,-113.281250
794,-113.281250
795,-113.281250
796,-113.281250
797,-113.281250
798,-113.281250
799,-113.281250
800,-113.281250
801,-113.281250
802,-113.281250
803,-113.281250
804,-113.281250
805,-113.281250
806,-113.281250
807,-113.281250
808,-113.281250
809,-113.281250
810,-113.281250
811,-113.281250
812,-113.281250
813,-113.281250
814,-113.281250
815,-113.281250
816,-113.281250
817,-113.281250
818,-113.281250
819,-113.281250
820,-113.281250
821,-113.281250
822,-113.281250
823,-113.281250
824,-113.281250
825,-113.281250
826,-113.281250
827,-113.281250
828,-113.281250
829,-113.281250
830,-113.281250
831,-113.281250
832,-113.281250
833,-113.281250
834,-113.281250
835,-113.281250
836,-113.281250
837,-113.281250
838,-113.281250
839,-113.281250
840,-113.281250
841,-113.281250
842,-113.281250
843,-113.281250
844,-113.281250
845,-113.281250
846,-113.281250
847,-113.281250
848,-113.281250
849,-113.281250
850,-113.281250
851,-113.281250
852,-113.281250
853,-113.281250
854,-109.375000
855,-109.375000
856,-109.375000
857,-109.375000
858,-109.375000
859,-109.375000
860,-109.375000
861,-109.375000
862,-109.375000
863,-109.375000
864,-109.375000
865,-109.375000
866,-109.375000
867,-109.375000
868,-109.375000
869,-105.468750
870,-105.468750
871,-109.375000
872,-105.468750
873,-105.468750
874,-105.468750
875,-105.468750
876,-105.468750
877,-105.468750
878,-105.468750
879,-105.468750
880,-105.468750
881,-105.468750
882,-105.468750
883,-105.468750
884,-105.468750
885,-105.468750
886,-105.468750
887,-105.468750
888,-101.562500
889,-101.562500
890,-101.562500
891,-101.562500
892,-101.562500
893,-101.562500
894,-101.562500
895,-101.562500
896,-101.562500
897,-101.562500
898,-97.656250
899,-101.562500
900,-97.656250
901,-97.656250
902,-97.656250
903,-97.656250
904,-97.656250
905,-97.656250
906,-97.656250
907,-97.656250
908,-97.656250
909,-97.656250
910,-93.750000
911,-93.750000
912,-93.750000
913,-93.750000
914,-93.750000
915,-93.750000
916,-93.750000
917,-93.750000
918,-93.750000
919,-89.843750
920,-89.843750
921,-89.843750
922,-89.843750
923,-89.843750
924,-89.843750
925,-89.843750
926,-89.843750
927,-89.843750
928,-89.843750
929,-89.843750
930,-89.843750
931,-85.937500
932,-85.937500
933,-85.937500
934,-85.937500
935,-85.937500
936,-85.937500
937,-82.031250
938,-82.031250
939,-82.031250
940,-82.031250
941,-82.031250
942,-82.031250
943,-82.031250
944,-82.031250
945,-78.125000
946,-78.125000
947,-78.125000
948,-78.125000
949,-78.125000
950,-78.125000
951,-78.125000
952,-78.125000
953,-78.125000
954,-74.218750
955,-74.218750
956,-74.218750
957,-74.218750
958,-74.218750
959,-74.218750
960,-74.218750
961,-70.312500
962,-70.312500
963,-70.312500
964,-70.312500
965,-70.312500
966,-70.312500
967,-70.312500
968,-70.312500
969,-66.406250
970,-66.406250
971,-66.406250
972,-66.406250
973,-66.406250
974,-66.406250
975,-66.406250
976,-62.500000
977,-62.500000
978,-62.500000
979,-62.500000
980,-62.500000
981,-62.500000
982,-62.500000
983,-58.593750
984,-58.593750
985,-58.593750
986,-58.593750
987,-58.593750
988,-58.593750
989,-54.687500
990,-54.687500
991,-54.687500
992,-54.687500
993,-54.687500
994,-54.687500
995,-54.687500
996,-50.781250
997,-50.781250
998,-50.781250
999,-50.781250
1000,-50.781250
1001,-46.875000
1002,-46.875000
1003,-46.875000
1004,-46.875000
1005,-46.875000
1006,-46.875000
1007,-46.875000
1008,-46.875000
1009,-42.968750
1010,-42.968750
1011,-42.968750
1012,-42.968750
1013,-42.968750
1014,-39.062500
1015,-39.062500
1016,-39.062500
1017,-39.062500
1018,-39.062500
1019,-39.062500
1020,-39.062500
1021,-35.156250
1022,-35.156250
1023,-35.156250
1024,-35.156250
1025,-35.156250
1026,-35.156250
1027,-31.250000
1028,-31.250000
1029,-31.250000
1030,-31.250000
1031,-31.250000
1032,-27.343750
1033,-27.343750
1034,-27.343750
1035,-27.343750
1036,-27.343750
1037,-27.343750
1038,-27.343750
1039,-27.343750
1040,-23.437500
1041,-23.437500
1042,-23.437500
1043,-23.437500
1044,-23.437500
1045,-19.531250
1046,-19.531250
1047,-19.531250
1048,-19.531250
1049,-19.531250
1050,-19.531250
1051,-15.625000
1052,-15.625000
1053,-15.625000
1054,-15.625000
1055,-15.625000
1056,-15.625000
1057,-15.625000
1058,-11.718750
1059,-11.718750
1060,-11.718750
1061,-11.718750
1062,-11.718750
1063,-11.718750
1064,-7.812500
1065,-7.812500
1066,-7.812500
1067,-7.812500
1068,-7.812500
1069,-7.812500
1070,-7.812500
1071,-3.906250
1072,-3.906250
1073,-3.906250
1074,-3.906250
1075,-3.906250
1076,0.000000
1077,0.000000
1078,0.000000
1079,0.000000
1080,0.000000
1081,0.000000
1082,0.000000
1083,3.906250
1084,3.906250
1085,3.906250
1086,3.906250
1087,3.906250
1088,3.906250
1089,3.906250
1090,7.812500
1091,7.812500
1092,7.812500
1093,7.812500
1094,7.812500
1095,7.812500
1096,11.718750
1097,11.718750
1098,11.718750
1099,11.718750
1100,11.718750
1101,11.718750
1102,15.625000
1103,15.625000
1104,15.625000
1105,15.625000
1106,15.625000
1107,15.625000
1108,15.625000
1109,19.531250
1110,19.531250
1111,19.531250
1112,19.531250
1113,19.531250
1114,19.531250
1115,19.531250
1116,23.437500
1117,23.437500
1118,23.437500
1119,23.437500
1120,23.437500
1121,23.437500
1122,23.437500
1123,27.343750
1124,27.343750
1125,27.343750
1126,27.343750
1127,27.343750
1128,27.343750
1129,27.343750
1130,31.250000
1131,31.250000
1132,31.250000
1133,31.250000
1134,31.250000
1135,31.250000
1136,35.156250
1137,31.250000
1138,35.156250
1139,35.156250
1140,35.156250
1141,35.156250
1142,35.156250
1143,35.156250
1144,39.062500
1145,39.062500
1146,39.062500
1147,39.062500
1148,39.062500
1149,39.062500
1150,39.062500
1151,42.968750
1152,39.062500
1153,42.968750
1154,42.968750
1155,42.968750
1156,42.968750
1157,42.968750
1158,42.968750
1159,42.968750
1160,46.875000
1161,46.875000
1162,46.875000
1163,46.875000
1164,46.875000
1165,46.875000
1166,46.875000
1167,46.875000
1168,50.781250
1169,50.781250
1170,50.781250
1171,50.781250
1172,50.781250
1173,50.781250
1174,50.781250
1175,50.781250
1176,50.781250
1177,50.781250
1178,50.781250
1179,54.687500
1180,54.687500
1181,54.687500
1182,54.687500
1183,54.687500
1184,54.687500
1185,54.687500
1186,54.687500
1187,54.687500
1188,58.593750
1189,58.593750
1190,58.593750
1191,58.593750
1192,58.593750
1193,58.593750
1194,58.593750
1195,58.593750
1196,58.593750
1197,58.593750
1198,62.500000
1199,62.500000
1200,62.500000
1201,62.500000
1202,62.500000
1203,62.500000
1204,62.500000
1205,62.500000
1206,62.500000
1207,66.406250
1208,66.406250
1209,66.406250
1210,66.406250
1211,66.406250
1212,66.406250
1213,66.406250
1214,66.406250
1215,66.406250
1216,66.406250
1217,66.406250
1218,70.312500
1219,66.406250
1220,70.312500
1221,70.312500
1222,70.312500
1223,70.312500
1224,70.312500
1225,70.312500
1226,70.312500
1227,70.312500
1228,70.312500
1229,70.312500
1230,70.312500
1231,70.312500
1232,70.312500
1233,70.312500
1234,70.312500
1235,70.312500
1236,74.218750
1237,74.218750
1238,74.218750
1239,74.218750
1240,74.218750
1241,74.218750
1242,74.218750
1243,74.218750
1244,74.218750
1245,74.218750
1246,74.218750
1247,74.218750
1248,74.218750
1249,74.218750
1250,74.218750
1251,78.125000
1252,74.218750
1253,74.218750
1254,78.125000
1255,78.125000
1256,78.125000
1257,78.125000
1258,78.125000
1259,78.125000
1260,78.125000
1261,78.125000
1262,78.125000
1263,78.125000
1264,78.125000
1265,78.125000
1266,78.125000
1267,78.125000
1268,78.125000
1269,78.125000
1270,78.125000
1271,78.125000
1272,82.031250
1273,82.031250
1274,82.031250
1275,82.031250
1276,82.031250
1277,82.031250
1278,82.031250
1279,82.031250
1280,82.031250
1281,82.031250
1282,82.031250
1283,82.031250
1284,82.031250
1285,82.031250
1286,82.031250
1287,82.031250
1288,82.031250
1289,82.031250
1290,82.031250
1291,82.031250
1292,82.031250
1293,82.031250
1294,82.031250
1295,82.031250
1296,82.031250
1297,82.031250
1298,82.031250
1299,82.031250
1300,82.031250
1301,82.031250
1302,82.031250
1303,82.031250
1304,82.031250
1305,82.031250
1306,82.031250
1307,82.031250
1308,82.031250
1309,82.031250
1310,82.031250
1311,82.031250
1312,82.031250
1313,82.031250
1314,82.031250
1315,82.031250
1316,82.031250
1317,82.031250
1318,82.031250
1319,82.031250
1320,82.031250
1321,82.031250
1322,82.031250
1323,82.031250
1324,82.031250
1325,82.031250
1326,82.031250
1327,82.031250
1328,82.031250
1329,82.031250
1330,82.031250
1331,82.031250
1332,82.031250
1333,82.031250
1334,82.031250
1335,82.031250
1336,82.031250
1337,82.031250
1338,82.031250
1339,82.031250
1340,82.031250
1341,82.031250
1342,82.031250
1343,82.031250
1344,82.031250
1345,82.031250
1346,82.031250
