Channel              :,CH1
Frequency            :,1.010kHz
Period               :,0.990ms
PK-PK                :,289.1mV
Probe attenuation    :,1X
Voltage per ADC value:,0.244141mV
Time interval        :,1.00000us

index,CH1_Voltage(mV)
1,-70.312500
2,-70.312500
3,-70.312500
4,-70.312500
5,-66.406250
6,-66.406250
7,-66.406250
8,-66.406250
9,-62.500000
10,-62.500000
11,-62.500000
12,-58.593750
13,-58.593750
14,-58.593750
15,-58.593750
16,-58.593750
17,-54.687500
18,-54.687500
19,-54.687500
20,-54.687500
21,-50.781250
22,-50.781250
23,-50.781250
24,-50.781250
25,-50.781250
26,-50.781250
27,-46.875000
28,-46.875000
29,-46.875000
30,-42.968750
31,-42.968750
32,-42.968750
33,-42.968750
34,-42.968750
35,-39.062500
36,-39.062500
37,-39.062500
38,-39.062500
39,-35.156250
40,-35.156250
41,-35.156250
42,-35.156250
43,-31.250000
44,-31.250000
45,-31.250000
46,-31.250000
47,-27.343750
48,-27.343750
49,-27.343750
50,-27.343750
51,-23.437500
52,-23.437500
53,-23.437500
54,-23.437500
55,-19.531250
56,-19.531250
57,-19.531250
58,-19.531250
59,-15.625000
60,-19.531250
61,-15.625000
62,-15.625000
63,-11.718750
64,-11.718750
65,-11.718750
66,-11.718750
67,-11.718750
68,-7.812500
69,-7.812500
70,-7.812500
71,-7.812500
72,-3.906250
73,-3.906250
74,-3.906250
75,-3.906250
76,-3.906250
77,0.000000
78,0.000000
79,0.000000
80,0.000000
81,3.906250
82,3.906250
83,3.906250
84,3.906250
85,7.812500
86,7.812500
87,7.812500
88,7.812500
89,7.812500
90,11.718750
91,11.718750
92,11.718750
93,11.718750
94,15.625000
95,15.625000
96,15.625000
97,15.625000
98,19.531250
99,19.531250
100,19.531250
101,19.531250
102,23.437500
103,23.437500
104,23.437500
105,23.437500
106,23.437500
107,27.343750
108,27.343750
109,27.343750
110,27.343750
111,27.343750
112,31.250000
113,31.250000
114,31.250000
115,31.250000
116,31.250000
117,35.156250
118,35.156250
119,35.156250
120,35.156250
121,35.156250
122,39.062500
123,39.062500
124,39.062500
125,39.062500
126,42.968750
127,42.968750
128,42.968750
129,42.968750
130,42.968750
131,46.875000
132,46.875000
133,46.875000
134,46.875000
135,46.875000
136,50.781250
137,50.781250
138,50.781250
139,50.781250
140,50.781250
141,54.687500
142,54.687500
143,54.687500
144,54.687500
145,54.687500
146,58.593750
147,58.593750
148,58.593750
149,58.593750
150,58.593750
151,58.593750
152,62.500000
153,62.500000
154,62.500000
155,62.500000
156,62.500000
157,66.406250
158,66.406250
159,66.406250
160,66.406250
161,66.406250
162,66.406250
163,66.406250
164,70.312500
165,70.312500
166,70.312500
167,70.312500
168,74.218750
169,74.218750
170,74.218750
171,74.218750
172,74.218750
173,74.218750
174,74.218750
175,78.125000
176,78.125000
177,78.125000
178,78.125000
179,78.125000
180,78.125000
181,78.125000
182,78.125000
183,82.031250
184,82.031250
185,82.031250
186,82.031250
187,82.031250
188,85.937500
189,85.937500
190,85.937500
191,85.937500
192,85.937500
193,85.937500
194,85.937500
195,89.843750
196,89.843750
197,89.843750
198,89.843750
199,89.843750
200,89.843750
201,89.843750
202,89.843750
203,93.750000
204,93.750000
205,93.750000
206,93.750000
207,93.750000
208,93.750000
209,97.656250
210,97.656250
211,97.656250
212,97.656250
213,97.656250
214,97.656250
215,97.656250
216,97.656250
217,97.656250
218,97.656250
219,101.562500
220,101.562500
221,101.562500
222,101.562500
223,101.562500
224,101.562500
225,101.562500
226,101.562500
227,101.562500
228,105.468750
229,105.468750
230,105.468750
231,105.468750
232,105.468750
233,105.468750
234,105.468750
235,105.468750
236,105.468750
237,105.468750
238,109.375000
239,109.375000
240,109.375000
241,109.375000
242,109.375000
243,109.375000
244,109.375000
245,109.375000
246,109.375000
247,109.375000
248,109.375000
249,113.281250
250,109.375000
251,113.281250
252,113.281250
253,113.281250
254,113.281250
255,113.281250
256,113.281250
257,113.281250
258,113.281250
259,113.281250
260,113.281250
261,113.281250
262,113.281250
263,113.281250
264,117.187500
265,117.187500
266,117.187500
267,117.187500
268,117.187500
269,117.187500
270,117.187500
271,117.187500
272,117.187500
273,117.187500
274,117.187500
275,117.187500
276,117.187500
277,117.187500
278,117.187500
279,117.187500
280,117.187500
281,117.187500
282,117.187500
283,117.187500
284,121.093750
285,121.093750
286,121.093750
287,121.093750
288,121.093750
289,121.093750
290,121.093750
291,121.093750
292,121.093750
293,121.093750
294,121.093750
295,121.093750
296,121.093750
297,121.093750
298,121.093750
299,121.093750
300,121.093750
301,121.093750
302,121.093750
303,121.093750
304,121.093750
305,121.093750
306,125.000000
307,121.093750
308,121.093750
309,121.093750
310,121.093750
311,121.093750
312,121.093750
313,121.093750
314,121.093750
315,121.093750
316,121.093750
317,121.093750
318,121.093750
319,121.093750
320,121.093750
321,121.093750
322,121.093750
323,121.093750
324,121.093750
325,121.093750
326,121.093750
327,121.093750
328,121.093750
329,121.093750
330,121.093750
331,121.093750
332,121.093750
333,121.093750
334,121.093750
335,121.093750
336,121.093750
337,121.093750
338,121.093750
339,121.093750
340,121.093750
341,121.093750
342,121.093750
343,121.093750
344,121.093750
345,121.093750
346,121.093750
347,121.093750
348,121.093750
349,121.093750
350,121.093750
351,121.093750
352,121.093750
353,121.093750
354,117.187500
355,121.093750
356,117.187500
357,117.187500
358,117.187500
359,117.187500
360,117.187500
361,117.187500
362,117.187500
363,117.187500
364,117.187500
365,117.187500
366,117.187500
367,117.187500
368,117.187500
369,117.187500
370,117.187500
371,117.187500
372,117.187500
373,113.281250
374,113.281250
375,113.281250
376,113.281250
377,113.281250
378,113.281250
379,113.281250
380,113.281250
381,113.281250
382,113.281250
383,113.281250
384,113.281250
385,113.281250
386,113.281250
387,113.281250
388,113.281250
389,109.375000
390,109.375000
391,109.375000
392,109.375000
393,109.375000
394,109.375000
395,109.375000
396,109.375000
397,109.375000
398,109.375000
399,109.375000
400,105.468750
401,105.468750
402,105.468750
403,105.468750
404,105.468750
405,105.468750
406,105.468750
407,105.468750
408,105.468750
409,105.468750
410,101.562500
411,101.562500
412,101.562500
413,101.562500
414,101.562500
415,101.562500
416,101.562500
417,101.562500
418,97.656250
419,97.656250
420,97.656250
421,97.656250
422,97.656250
423,97.656250
424,97.656250
425,97.656250
426,97.656250
427,97.656250
428,93.750000
429,93.750000
430,93.750000
431,93.750000
432,93.750000
433,93.750000
434,89.843750
435,89.843750
436,89.843750
437,89.843750
438,89.843750
439,89.843750
440,89.843750
441,85.937500
442,85.937500
443,85.937500
444,85.937500
445,85.937500
446,85.937500
447,85.937500
448,85.937500
449,82.031250
450,82.031250
451,82.031250
452,82.031250
453,82.031250
454,82.031250
455,82.031250
456,78.125000
457,78.125000
458,78.125000
459,78.125000
460,78.125000
461,74.218750
462,74.218750
463,74.218750
464,74.218750
465,74.218750
466,74.218750
467,74.218750
468,70.312500
469,70.312500
470,70.312500
471,70.312500
472,70.312500
473,66.406250
474,66.406250
475,66.406250
476,66.406250
477,66.406250
478,66.406250
479,62.500000
480,62.500000
481,62.500000
482,62.500000
483,62.500000
484,62.500000
485,58.593750
486,58.593750
487,58.593750
488,58.593750
489,58.593750
490,54.687500
491,54.687500
492,54.687500
493,54.687500
494,54.687500
495,50.781250
496,50.781250
497,50.781250
498,50.781250
499,50.781250
500,46.875000
501,46.875000
502,46.875000
503,46.875000
504,46.875000
505,46.875000
506,42.968750
507,42.968750
508,42.968750
509,39.062500
510,39.062500
511,39.062500
512,39.062500
513,39.062500
514,39.062500
515,35.156250
516,35.156250
517,35.156250
518,35.156250
519,31.250000
520,31.250000
521,31.250000
522,31.250000
523,31.250000
524,31.250000
525,27.343750
526,27.343750
527,27.343750
528,27.343750
529,23.437500
530,23.437500
531,23.437500
532,23.437500
533,19.531250
534,19.531250
535,19.531250
536,19.531250
537,19.531250
538,15.625000
539,15.625000
540,15.625000
541,15.625000
542,15.625000
543,11.718750
544,11.718750
545,11.718750
546,11.718750
547,7.812500
548,7.812500
549,7.812500
550,7.812500
551,7.812500
552,3.906250
553,3.906250
554,3.906250
555,0.000000
556,0.000000
557,0.000000
558,0.000000
559,0.000000
560,-3.906250
561,-3.906250
562,-3.906250
563,-3.906250
564,-7.812500
565,-7.812500
566,-7.812500
567,-11.718750
568,-11.718750
569,-11.718750
570,-11.718750
571,-11.718750
572,-15.625000
573,-15.625000
574,-15.625000
575,-15.625000
576,-19.531250
577,-19.531250
578,-19.531250
579,-19.531250
580,-23.437500
581,-23.437500
582,-23.437500
583,-23.437500
584,-27.343750
585,-27.343750
586,-27.343750
587,-27.343750
588,-31.250000
589,-31.250000
590,-31.250000
591,-31.250000
592,-35.156250
593,-35.156250
594,-35.156250
595,-35.156250
596,-39.062500
597,-39.062500
598,-39.062500
599,-39.062500
600,-39.062500
601,-42.968750
602,-42.968750
603,-42.968750
604,-42.968750
605,-42.968750
606,-46.875000
607,-46.875000
608,-46.875000
609,-50.781250
610,-50.781250
611,-50.781250
612,-50.781250
613,-50.781250
614,-54.687500
615,-54.687500
616,-54.687500
617,-54.687500
618,-58.593750
619,-58.593750
620,-58.593750
621,-58.593750
622,-62.500000
623,-62.500000
624,-62.500000
625,-62.500000
626,-66.406250
627,-66.406250
628,-66.406250
629,-66.406250
630,-70.312500
631,-70.312500
632,-70.312500
633,-70.312500
634,-70.312500
635,-74.218750
636,-74.218750
637,-74.218750
638,-78.125000
639,-78.125000
640,-78.125000
641,-78.125000
642,-78.125000
643,-78.125000
644,-82.031250
645,-82.031250
646,-82.031250
647,-82.031250
648,-85.937500
649,-85.937500
650,-85.937500
651,-85.937500
652,-85.937500
653,-89.843750
654,-89.843750
655,-89.843750
656,-89.843750
657,-93.750000
658,-93.750000
659,-93.750000
660,-93.750000
661,-93.750000
662,-97.656250
663,-97.656250
664,-97.656250
665,-97.656250
666,-97.656250
667,-101.562500
668,-101.562500
669,-101.562500
670,-101.562500
671,-101.562500
672,-105.468750
673,-105.468750
674,-105.468750
675,-105.468750
676,-109.375000
677,-109.375000
678,-109.375000
679,-109.375000
680,-113.281250
681,-109.375000
682,-113.281250
683,-113.281250
684,-113.281250
685,-113.281250
686,-113.281250
687,-113.281250
688,-117.187500
689,-117.187500
690,-117.187500
691,-117.187500
692,-121.093750
693,-121.093750
694,-121.093750
695,-121.093750
696,-121.093750
697,-125.000000
698,-125.000000
699,-125.000000
700,-125.000000
701,-125.000000
702,-125.000000
703,-125.000000
704,-128.906250
705,-128.906250
706,-128.906250
707,-128.906250
708,-128.906250
709,-128.906250
710,-132.812500
711,-132.812500
712,-132.812500
713,-132.812500
714,-132.812500
715,-132.812500
716,-136.718750
717,-136.718750
718,-136.718750
719,-136.718750
720,-136.718750
721,-136.718750
722,-136.718750
723,-140.625000
724,-140.625000
725,-140.625000
726,-140.625000
727,-140.625000
728,-140.625000
729,-140.625000
730,-144.531250
731,-144.531250
732,-144.531250
733,-144.531250
734,-144.531250
735,-144.531250
736,-144.531250
737,-144.531250
738,-148.437500
739,-148.437500
740,-148.437500
741,-148.437500
742,-148.437500
743,-148.437500
744,-148.437500
745,-148.437500
746,-148.437500
747,-152.343750
748,-152.343750
749,-152.343750
750,-152.343750
751,-152.343750
752,-152.343750
753,-152.343750
754,-152.343750
755,-152.343750
756,-152.343750
757,-152.343750
758,-156.250000
759,-156.250000
760,-156.250000
761,-156.250000
762,-156.250000
763,-156.250000
764,-156.250000
765,-156.250000
766,-156.250000
767,-156.250000
768,-156.250000
769,-156.250000
770,-160.156250
771,-160.156250
772,-160.156250
773,-160.156250
774,-160.156250
775,-160.156250
776,-160.156250
777,-160.156250
778,-160.156250
779,-160.156250
780,-160.156250
781,-160.156250
782,-160.156250
783,-160.156250
784,-160.156250
785,-160.156250
786,-160.156250
787,-164.062500
788,-164.062500
789,-164.062500
790,-164.062500
791,-164.062500
792,-164.062500
793,-164.062500
794,-164.062500
795,-164.062500
796,-164.062500
797,-164.062500
798,-164.062500
799,-164.062500
800,-164.062500
801,-164.062500
802,-164.062500
803,-164.062500
804,-164.062500
805,-164.062500
806,-164.062500
807,-164.062500
808,-164.062500
809,-164.062500
810,-164.062500
811,-164.062500
812,-164.062500
813,-164.062500
814,-164.062500
815,-164.062500
816,-164.062500
817,-164.062500
818,-164.062500
819,-164.062500
820,-164.062500
821,-164.062500
822,-164.062500
823,-164.062500
824,-164.062500
825,-164.062500
826,-164.062500
827,-164.062500
828,-164.062500
829,-164.062500
830,-164.062500
831,-164.062500
832,-164.062500
833,-164.062500
834,-164.062500
835,-164.062500
836,-160.156250
837,-160.156250
838,-160.156250
839,-160.156250
840,-160.156250
841,-160.156250
842,-164.062500
843,-160.156250
844,-160.156250
845,-160.156250
846,-160.156250
847,-160.156250
848,-160.156250
849,-160.156250
850,-160.156250
851,-160.156250
852,-160.156250
853,-160.156250
854,-160.156250
855,-156.250000
856,-156.250000
857,-156.250000
858,-156.250000
859,-156.250000
860,-156.250000
861,-156.250000
862,-156.250000
863,-156.250000
864,-156.250000
865,-156.250000
866,-156.250000
867,-152.343750
868,-152.343750
869,-152.343750
870,-152.343750
871,-152.343750
872,-152.343750
873,-152.343750
874,-152.343750
875,-152.343750
876,-148.437500
877,-148.437500
878,-148.437500
879,-148.437500
880,-148.437500
881,-148.437500
882,-148.437500
883,-148.437500
884,-148.437500
885,-148.437500
886,-148.437500
887,-144.531250
888,-144.531250
889,-144.531250
890,-144.531250
891,-144.531250
892,-144.531250
893,-144.531250
894,-140.625000
895,-140.625000
896,-140.625000
897,-140.625000
898,-140.625000
899,-140.625000
900,-136.718750
901,-136.718750
902,-136.718750
903,-136.718750
904,-136.718750
905,-136.718750
906,-136.718750
907,-132.812500
908,-132.812500
909,-132.812500
910,-132.812500
911,-132.812500
912,-132.812500
913,-132.812500
914,-128.906250
915,-132.812500
916,-128.906250
917,-128.906250
918,-128.906250
919,-128.906250
920,-128.906250
921,-125.000000
922,-125.000000
923,-125.000000
924,-125.000000
925,-125.000000
926,-121.093750
927,-121.093750
928,-121.093750
929,-121.093750
930,-121.093750
931,-121.093750
932,-117.187500
933,-117.187500
934,-117.187500
935,-117.187500
936,-117.187500
937,-113.281250
938,-113.281250
939,-113.281250
940,-113.281250
941,-113.281250
942,-113.281250
943,-109.375000
944,-109.375000
945,-109.375000
946,-109.375000
947,-109.375000
948,-109.375000
949,-105.468750
950,-105.468750
951,-105.468750
952,-105.468750
953,-101.562500
954,-101.562500
955,-101.562500
956,-101.562500
957,-101.562500
958,-97.656250
959,-97.656250
960,-97.656250
961,-97.656250
962,-97.656250
963,-97.656250
964,-93.750000
965,-93.750000
966,-93.750000
967,-93.750000
968,-89.843750
969,-89.843750
970,-89.843750
971,-89.843750
972,-85.937500
973,-85.937500
974,-85.937500
975,-85.937500
976,-85.937500
977,-82.031250
978,-82.031250
979,-82.031250
980,-82.031250
981,-82.031250
982,-78.125000
983,-78.125000
984,-78.125000
985,-74.218750
986,-74.218750
987,-74.218750
988,-74.218750
989,-74.218750
990,-74.218750
991,-70.312500
992,-70.312500
993,-70.312500
994,-70.312500
995,-66.406250
996,-66.406250
997,-66.406250
998,-66.406250
999,-62.500000
1000,-62.500000
1001,-62.500000
1002,-62.500000
1003,-58.593750
1004,-62.500000
1005,-58.593750
1006,-58.593750
1007,-54.687500
1008,-54.687500
1009,-54.687500
1010,-54.687500
1011,-54.687500
1012,-54.687500
1013,-50.781250
1014,-50.781250
1015,-50.781250
1016,-46.875000
1017,-46.875000
1018,-46.875000
1019,-46.875000
1020,-42.968750
1021,-42.968750
1022,-42.968750
1023,-42.968750
1024,-42.968750
1025,-39.062500
1026,-39.062500
1027,-39.062500
1028,-39.062500
1029,-35.156250
1030,-35.156250
1031,-35.156250
1032,-35.156250
1033,-31.250000
1034,-31.250000
1035,-31.250000
1036,-31.250000
1037,-27.343750
1038,-27.343750
1039,-27.343750
1040,-27.343750
1041,-23.437500
1042,-23.437500
1043,-23.437500
1044,-23.437500
1045,-23.437500
1046,-19.531250
1047,-19.531250
1048,-19.531250
1049,-19.531250
1050,-15.625000
1051,-15.625000
1052,-15.625000
1053,-11.718750
1054,-11.718750
1055,-11.718750
1056,-11.718750
1057,-7.812500
1058,-7.812500
1059,-7.812500
1060,-7.812500
1061,-3.906250
1062,-7.812500
1063,-3.906250
1064,-3.906250
1065,-3.906250
1066,-3.906250
1067,0.000000
1068,0.000000
1069,0.000000
1070,0.000000
1071,3.906250
1072,3.906250
1073,3.906250
1074,3.906250
1075,7.812500
1076,7.812500
1077,7.812500
1078,7.812500
1079,11.718750
1080,11.718750
1081,11.718750
1082,11.718750
1083,11.718750
1084,15.625000
1085,15.625000
1086,15.625000
1087,15.625000
1088,15.625000
1089,19.531250
1090,19.531250
1091,19.531250
1092,19.531250
1093,23.437500
1094,23.437500
1095,23.437500
1096,23.437500
1097,23.437500
1098,27.343750
1099,27.343750
1100,27.343750
1101,27.343750
1102,31.250000
1103,31.250000
1104,31.250000
1105,31.250000
1106,31.250000
1107,35.156250
1108,35.156250
1109,35.156250
1110,35.156250
1111,35.156250
1112,39.062500
1113,39.062500
1114,39.062500
1115,39.062500
1116,39.062500
1117,42.968750
1118,42.968750
1119,42.968750
1120,42.968750
1121,46.875000
1122,46.875000
1123,46.875000
1124,46.875000
1125,46.875000
1126,46.875000
1127,50.781250
1128,50.781250
1129,50.781250
1130,50.781250
1131,54.687500
1132,50.781250
1133,54.687500
1134,54.687500
1135,54.687500
1136,54.687500
1137,58.593750
1138,58.593750
1139,58.593750
1140,58.593750
1141,58.593750
1142,58.593750
1143,62.500000
1144,62.500000
1145,62.500000
1146,62.500000
1147,62.500000
1148,66.406250
1149,66.406250
1150,66.406250
1151,66.406250
1152,66.406250
1153,70.312500
1154,70.312500
1155,70.312500
1156,70.312500
1157,70.312500
1158,70.312500
1159,74.218750
1160,74.218750
1161,74.218750
1162,74.218750
1163,74.218750
1164,74.218750
1165,78.125000
1166,78.125000
1167,78.125000
1168,78.125000
1169,78.125000
1170,78.125000
1171,82.031250
1172,82.031250
1173,82.031250
1174,82.031250
1175,82.031250
1176,82.031250
1177,82.031250
1178,85.937500
1179,85.937500
1180,85.937500
1181,85.937500
1182,85.937500
1183,85.937500
1184,85.937500
1185,85.937500
1186,89.843750
1187,89.843750
1188,89.843750
1189,89.843750
1190,89.843750
1191,89.843750
1192,89.843750
1193,93.750000
1194,93.750000
1195,93.750000
1196,93.750000
1197,93.750000
1198,93.750000
1199,93.750000
1200,93.750000
1201,97.656250
1202,97.656250
1203,97.656250
1204,97.656250
1205,97.656250
1206,97.656250
1207,97.656250
1208,97.656250
1209,101.562500
1210,101.562500
1211,101.562500
1212,101.562500
1213,101.562500
1214,101.562500
1215,101.562500
1216,101.562500
1217,101.562500
1218,105.468750
1219,105.468750
1220,105.468750
1221,105.468750
1222,105.468750
1223,105.468750
1224,105.468750
1225,105.468750
1226,105.468750
1227,105.468750
1228,109.375000
1229,109.375000
1230,109.375000
1231,109.375000
1232,109.375000
1233,109.375000
1234,109.375000
1235,109.375000
1236,109.375000
1237,109.375000
1238,109.375000
1239,109.375000
1240,113.281250
1241,113.281250
1242,113.281250
1243,113.281250
1244,113.281250
1245,113.281250
1246,113.281250
1247,113.281250
1248,113.281250
1249,113.281250
1250,113.281250
1251,113.281250
1252,113.281250
1253,117.187500
1254,113.281250
1255,113.281250
1256,113.281250
1257,117.187500
1258,117.187500
1259,117.187500
1260,117.187500
1261,117.187500
1262,117.187500
1263,117.187500
1264,117.187500
1265,117.187500
1266,117.187500
1267,117.187500
1268,117.187500
1269,117.187500
1270,117.187500
1271,117.187500
1272,117.187500
1273,121.093750
1274,121.093750
1275,121.093750
1276,121.093750
1277,121.093750
1278,121.093750
1279,121.093750
1280,121.093750
1281,121.093750
1282,121.093750
1283,121.093750
1284,121.093750
1285,121.093750
1286,121.093750
1287,121.093750
1288,121.093750
1289,121.093750
1290,121.093750
1291,121.093750
1292,121.093750
1293,121.093750
1294,121.093750
1295,121.093750
1296,121.093750
1297,121.093750
1298,121.093750
1299,121.093750
1300,121.093750
1301,121.093750
1302,121.093750
1303,121.093750
1304,121.093750
1305,121.093750
1306,121.093750
1307,121.093750
1308,121.093750
1309,121.093750
1310,121.093750
1311,121.093750
1312,121.093750
1313,121.093750
1314,121.093750
1315,121.093750
1316,121.093750
