Channel              :,CH1
Frequency            :,1.010kHz
Period               :,0.990ms
PK-PK                :,246.1mV
Probe attenuation    :,1X
Voltage per ADC value:,0.244141mV
Time interval        :,1.00000us

index,CH1_Voltage(mV)
1,-62.500000
2,-62.500000
3,-62.500000
4,-62.500000
5,-62.500000
6,-58.593750
7,-58.593750
8,-58.593750
9,-54.687500
10,-54.687500
11,-54.687500
12,-54.687500
13,-54.687500
14,-54.687500
15,-54.687500
16,-50.781250
17,-50.781250
18,-50.781250
19,-50.781250
20,-46.875000
21,-46.875000
22,-46.875000
23,-46.875000
24,-46.875000
25,-42.968750
26,-42.968750
27,-42.968750
28,-42.968750
29,-42.968750
30,-42.968750
31,-39.062500
32,-39.062500
33,-39.062500
34,-39.062500
35,-35.156250
36,-35.156250
37,-35.156250
38,-35.156250
39,-35.156250
40,-35.156250
41,-31.250000
42,-31.250000
43,-31.250000
44,-31.250000
45,-27.343750
46,-27.343750
47,-27.343750
48,-27.343750
49,-27.343750
50,-23.437500
51,-23.437500
52,-23.437500
53,-23.437500
54,-23.437500
55,-23.437500
56,-19.531250
57,-19.531250
58,-19.531250
59,-19.531250
60,-15.625000
61,-15.625000
62,-15.625000
63,-15.625000
64,-15.625000
65,-11.718750
66,-11.718750
67,-11.718750
68,-11.718750
69,-11.718750
70,-7.812500
71,-7.812500
72,-7.812500
73,-7.812500
74,-7.812500
75,-7.812500
76,-3.906250
77,-3.906250
78,-3.906250
79,-3.906250
80,0.000000
81,0.000000
82,0.000000
83,0.000000
84,0.000000
85,0.000000
86,3.906250
87,3.906250
88,3.906250
89,7.812500
90,7.812500
91,7.812500
92,7.812500
93,7.812500
94,7.812500
95,11.718750
96,11.718750
97,11.718750
98,11.718750
99,11.718750
100,15.625000
101,15.625000
102,15.625000
103,15.625000
104,15.625000
105,15.625000
106,19.531250
107,19.531250
108,19.531250
109,19.531250
110,19.531250
111,19.531250
112,23.437500
113,23.437500
114,23.437500
115,23.437500
116,27.343750
117,27.343750
118,27.343750
119,27.343750
120,27.343750
121,27.343750
122,31.250000
123,31.250000
124,31.250000
125,31.250000
126,35.156250
127,35.156250
128,35.156250
129,35.156250
130,35.156250
131,35.156250
132,35.156250
133,39.062500
134,39.062500
135,39.062500
136,39.062500
137,39.062500
138,42.968750
139,42.968750
140,42.968750
141,42.968750
142,42.968750
143,42.968750
144,42.968750
145,46.875000
146,46.875000
147,46.875000
148,46.875000
149,46.875000
150,46.875000
151,46.875000
152,50.781250
153,50.781250
154,50.781250
155,50.781250
156,54.687500
157,54.687500
158,54.687500
159,54.687500
160,54.687500
161,54.687500
162,54.687500
163,54.687500
164,58.593750
165,58.593750
166,58.593750
167,58.593750
168,58.593750
169,58.593750
170,58.593750
171,62.500000
172,62.500000
173,62.500000
174,62.500000
175,62.500000
176,62.500000
177,62.500000
178,66.406250
179,66.406250
180,66.406250
181,66.406250
182,66.406250
183,70.312500
184,70.312500
185,70.312500
186,70.312500
187,70.312500
188,70.312500
189,70.312500
190,70.312500
191,70.312500
192,74.218750
193,74.218750
194,74.218750
195,74.218750
196,74.218750
197,74.218750
198,74.218750
199,74.218750
200,78.125000
201,78.125000
202,78.125000
203,78.125000
204,78.125000
205,78.125000
206,78.125000
207,78.125000
208,82.031250
209,82.031250
210,82.031250
211,82.031250
212,82.031250
213,82.031250
214,82.031250
215,82.031250
216,82.031250
217,85.937500
218,85.937500
219,85.937500
220,85.937500
221,85.937500
222,85.937500
223,85.937500
224,85.937500
225,85.937500
226,85.937500
227,89.843750
228,89.843750
229,89.843750
230,89.843750
231,89.843750
232,89.843750
233,89.843750
234,89.843750
235,89.843750
236,89.843750
237,89.843750
238,89.843750
239,93.750000
240,93.750000
241,93.750000
242,89.843750
243,93.750000
244,93.750000
245,93.750000
246,93.750000
247,93.750000
248,93.750000
249,93.750000
250,93.750000
251,97.656250
252,97.656250
253,97.656250
254,97.656250
255,97.656250
256,97.656250
257,97.656250
258,97.656250
259,97.656250
260,97.656250
261,97.656250
262,97.656250
263,97.656250
264,97.656250
265,97.656250
266,101.562500
267,101.562500
268,97.656250
269,101.562500
270,101.562500
271,101.562500
272,101.562500
273,101.562500
274,101.562500
275,101.562500
276,101.562500
277,101.562500
278,101.562500
279,101.562500
280,101.562500
281,101.562500
282,101.562500
283,101.562500
284,101.562500
285,101.562500
286,105.468750
287,105.468750
288,105.468750
289,105.468750
290,105.468750
291,105.468750
292,105.468750
293,105.468750
294,105.468750
295,105.468750
296,105.468750
297,105.468750
298,105.468750
299,105.468750
300,105.468750
301,105.468750
302,105.468750
303,105.468750
304,105.468750
305,105.468750
306,105.468750
307,105.468750
308,105.468750
309,105.468750
310,105.468750
311,105.468750
312,105.468750
313,105.468750
314,105.468750
315,105.468750
316,105.468750
317,105.468750
318,105.468750
319,105.468750
320,105.468750
321,105.468750
322,105.468750
323,105.468750
324,105.468750
325,105.468750
326,105.468750
327,105.468750
328,105.468750
329,105.468750
330,105.468750
331,105.468750
332,105.468750
333,105.468750
334,105.468750
335,105.468750
336,105.468750
337,105.468750
338,105.468750
339,105.468750
340,105.468750
341,105.468750
342,105.468750
343,105.468750
344,105.468750
345,105.468750
346,105.468750
347,105.468750
348,105.468750
349,105.468750
350,105.468750
351,105.468750
352,105.468750
353,105.468750
354,105.468750
355,105.468750
356,105.468750
357,101.562500
358,105.468750
359,105.468750
360,101.562500
361,101.562500
362,101.562500
363,101.562500
364,101.562500
365,101.562500
366,101.562500
367,101.562500
368,101.562500
369,101.562500
370,101.562500
371,101.562500
372,101.562500
373,101.562500
374,101.562500
375,101.562500
376,101.562500
377,101.562500
378,101.562500
379,101.562500
380,101.562500
381,101.562500
382,97.656250
383,97.656250
384,97.656250
385,97.656250
386,97.656250
387,97.656250
388,97.656250
389,97.656250
390,97.656250
391,97.656250
392,97.656250
393,97.656250
394,93.750000
395,97.656250
396,93.750000
397,93.750000
398,93.750000
399,93.750000
400,93.750000
401,93.750000
402,93.750000
403,93.750000
404,93.750000
405,93.750000
406,93.750000
407,89.843750
408,89.843750
409,89.843750
410,89.843750
411,89.843750
412,89.843750
413,89.843750
414,89.843750
415,89.843750
416,89.843750
417,89.843750
418,85.937500
419,85.937500
420,85.937500
421,85.937500
422,85.937500
423,85.937500
424,85.937500
425,85.937500
426,85.937500
427,82.031250
428,82.031250
429,82.031250
430,82.031250
431,82.031250
432,82.031250
433,82.031250
434,82.031250
435,82.031250
436,78.125000
437,78.125000
438,78.125000
439,78.125000
440,78.125000
441,78.125000
442,78.125000
443,78.125000
444,78.125000
445,78.125000
446,78.125000
447,74.218750
448,74.218750
449,74.218750
450,74.218750
451,74.218750
452,74.218750
453,70.312500
454,70.312500
455,70.312500
456,70.312500
457,70.312500
458,70.312500
459,70.312500
460,66.406250
461,66.406250
462,66.406250
463,66.406250
464,66.406250
465,66.406250
466,66.406250
467,66.406250
468,62.500000
469,62.500000
470,62.500000
471,62.500000
472,62.500000
473,62.500000
474,62.500000
475,58.593750
476,58.593750
477,58.593750
478,58.593750
479,58.593750
480,58.593750
481,54.687500
482,54.687500
483,54.687500
484,54.687500
485,54.687500
486,54.687500
487,54.687500
488,50.781250
489,50.781250
490,50.781250
491,50.781250
492,50.781250
493,50.781250
494,46.875000
495,46.875000
496,46.875000
497,46.875000
498,46.875000
499,46.875000
500,46.875000
501,42.968750
502,42.968750
503,42.968750
504,42.968750
505,42.968750
506,39.062500
507,39.062500
508,39.062500
509,39.062500
510,39.062500
511,39.062500
512,39.062500
513,35.156250
514,35.156250
515,35.156250
516,35.156250
517,35.156250
518,31.250000
519,31.250000
520,31.250000
521,31.250000
522,31.250000
523,31.250000
524,27.343750
525,27.343750
526,27.343750
527,27.343750
528,23.437500
529,23.437500
530,23.437500
531,23.437500
532,23.437500
533,23.437500
534,19.531250
535,19.531250
536,19.531250
537,19.531250
538,19.531250
539,19.531250
540,15.625000
541,15.625000
542,15.625000
543,11.718750
544,15.625000
545,11.718750
546,11.718750
547,11.718750
548,11.718750
549,11.718750
550,7.812500
551,7.812500
552,7.812500
553,7.812500
554,7.812500
555,3.906250
556,3.906250
557,3.906250
558,3.906250
559,3.906250
560,0.000000
561,0.000000
562,0.000000
563,0.000000
564,0.000000
565,-3.906250
566,-3.906250
567,-3.906250
568,-3.906250
569,-3.906250
570,-7.812500
571,-7.812500
572,-7.812500
573,-7.812500
574,-11.718750
575,-11.718750
576,-11.718750
577,-11.718750
578,-11.718750
579,-11.718750
580,-15.625000
581,-15.625000
582,-15.625000
583,-15.625000
584,-19.531250
585,-19.531250
586,-19.531250
587,-19.531250
588,-19.531250
589,-23.437500
590,-23.437500
591,-23.437500
592,-23.437500
593,-23.437500
594,-23.437500
595,-27.343750
596,-27.343750
597,-27.343750
598,-27.343750
599,-31.250000
600,-31.250000
601,-31.250000
602,-31.250000
603,-35.156250
604,-35.156250
605,-35.156250
606,-35.156250
607,-35.156250
608,-35.156250
609,-39.062500
610,-39.062500
611,-39.062500
612,-39.062500
613,-42.968750
614,-42.968750
615,-42.968750
616,-42.968750
617,-42.968750
618,-42.968750
619,-46.875000
620,-46.875000
621,-46.875000
622,-46.875000
623,-46.875000
624,-50.781250
625,-50.781250
626,-50.781250
627,-50.781250
628,-54.687500
629,-54.687500
630,-54.687500
631,-54.687500
632,-54.687500
633,-58.593750
634,-58.593750
635,-58.593750
636,-58.593750
637,-58.593750
638,-58.593750
639,-58.593750
640,-62.500000
641,-62.500000
642,-62.500000
643,-62.500000
644,-66.406250
645,-66.406250
646,-66.406250
647,-66.406250
648,-66.406250
649,-66.406250
650,-70.312500
651,-70.312500
652,-70.312500
653,-70.312500
654,-70.312500
655,-74.218750
656,-74.218750
657,-74.218750
658,-74.218750
659,-74.218750
660,-78.125000
661,-78.125000
662,-78.125000
663,-78.125000
664,-78.125000
665,-82.031250
666,-82.031250
667,-82.031250
668,-82.031250
669,-82.031250
670,-82.031250
671,-85.937500
672,-85.937500
673,-85.937500
674,-85.937500
675,-85.937500
676,-89.843750
677,-89.843750
678,-89.843750
679,-89.843750
680,-89.843750
681,-89.843750
682,-93.750000
683,-93.750000
684,-93.750000
685,-93.750000
686,-93.750000
687,-93.750000
688,-93.750000
689,-97.656250
690,-97.656250
691,-97.656250
692,-97.656250
693,-97.656250
694,-97.656250
695,-101.562500
696,-101.562500
697,-101.562500
698,-101.562500
699,-101.562500
700,-101.562500
701,-101.562500
702,-105.468750
703,-105.468750
704,-105.468750
705,-105.468750
706,-105.468750
707,-105.468750
708,-109.375000
709,-109.375000
710,-109.375000
711,-109.375000
712,-109.375000
713,-109.375000
714,-109.375000
715,-109.375000
716,-113.281250
717,-113.281250
718,-113.281250
719,-113.281250
720,-113.281250
721,-113.281250
722,-117.187500
723,-113.281250
724,-117.187500
725,-117.187500
726,-117.187500
727,-117.187500
728,-117.187500
729,-117.187500
730,-117.187500
731,-117.187500
732,-121.093750
733,-121.093750
734,-121.093750
735,-121.093750
736,-121.093750
737,-121.093750
738,-121.093750
739,-121.093750
740,-121.093750
741,-121.093750
742,-125.000000
743,-125.000000
744,-125.000000
745,-125.000000
746,-125.000000
747,-125.000000
748,-125.000000
749,-125.000000
750,-125.000000
751,-125.000000
752,-125.000000
753,-128.906250
754,-128.906250
755,-128.906250
756,-128.906250
757,-128.906250
758,-128.906250
759,-128.906250
760,-128.906250
761,-128.906250
762,-128.906250
763,-128.906250
764,-128.906250
765,-132.812500
766,-132.812500
767,-132.812500
768,-132.812500
769,-132.812500
770,-132.812500
771,-132.812500
772,-132.812500
773,-132.812500
774,-132.812500
775,-132.812500
776,-132.812500
777,-132.812500
778,-136.718750
779,-132.812500
780,-136.718750
781,-132.812500
782,-136.718750
783,-136.718750
784,-136.718750
785,-136.718750
786,-136.718750
787,-136.718750
788,-136.718750
789,-136.718750
790,-136.718750
791,-136.718750
792,-136.718750
793,-136.718750
794,-136.718750
795,-136.718750
796,-136.718750
797,-136.718750
798,-136.718750
799,-136.718750
800,-136.718750
801,-136.718750
802,-136.718750
803,-136.718750
804,-136.718750
805,-136.718750
806,-136.718750
807,-136.718750
808,-140.625000
809,-136.718750
810,-140.625000
811,-140.625000
812,-140.625000
813,-136.718750
814,-136.718750
815,-136.718750
816,-136.718750
817,-136.718750
818,-136.718750
819,-136.718750
820,-136.718750
821,-140.625000
822,-140.625000
823,-140.625000
824,-140.625000
825,-136.718750
826,-136.718750
827,-136.718750
828,-136.718750
829,-136.718750
830,-136.718750
831,-136.718750
832,-136.718750
833,-136.718750
834,-136.718750
835,-136.718750
836,-136.718750
837,-136.718750
838,-136.718750
839,-136.718750
840,-136.718750
841,-136.718750
842,-136.718750
843,-136.718750
844,-136.718750
845,-136.718750
846,-136.718750
847,-136.718750
848,-136.718750
849,-136.718750
850,-136.718750
851,-136.718750
852,-136.718750
853,-132.812500
854,-132.812500
855,-132.812500
856,-132.812500
857,-132.812500
858,-132.812500
859,-132.812500
860,-132.812500
861,-132.812500
862,-132.812500
863,-132.812500
864,-132.812500
865,-132.812500
866,-132.812500
867,-132.812500
868,-132.812500
869,-132.812500
870,-132.812500
871,-128.906250
872,-128.906250
873,-128.906250
874,-128.906250
875,-128.906250
876,-128.906250
877,-128.906250
878,-128.906250
879,-128.906250
880,-128.906250
881,-128.906250
882,-125.000000
883,-125.000000
884,-125.000000
885,-125.000000
886,-125.000000
887,-125.000000
888,-125.000000
889,-125.000000
890,-125.000000
891,-121.093750
892,-125.000000
893,-121.093750
894,-121.093750
895,-121.093750
896,-121.093750
897,-121.093750
898,-121.093750
899,-121.093750
900,-121.093750
901,-117.187500
902,-117.187500
903,-117.187500
904,-117.187500
905,-117.187500
906,-117.187500
907,-117.187500
908,-117.187500
909,-113.281250
910,-113.281250
911,-113.281250
912,-113.281250
913,-113.281250
914,-113.281250
915,-113.281250
916,-109.375000
917,-109.375000
918,-109.375000
919,-109.375000
920,-109.375000
921,-109.375000
922,-109.375000
923,-109.375000
924,-105.468750
925,-105.468750
926,-105.468750
927,-105.468750
928,-105.468750
929,-105.468750
930,-105.468750
931,-105.468750
932,-101.562500
933,-101.562500
934,-101.562500
935,-101.562500
936,-101.562500
937,-97.656250
938,-97.656250
939,-97.656250
940,-97.656250
941,-97.656250
942,-97.656250
943,-97.656250
944,-97.656250
945,-93.750000
946,-93.750000
947,-93.750000
948,-93.750000
949,-93.750000
950,-89.843750
951,-89.843750
952,-89.843750
953,-89.843750
954,-89.843750
955,-89.843750
956,-85.937500
957,-89.843750
958,-85.937500
959,-85.937500
960,-85.937500
961,-85.937500
962,-85.937500
963,-82.031250
964,-82.031250
965,-82.031250
966,-82.031250
967,-82.031250
968,-78.125000
969,-78.125000
970,-78.125000
971,-78.125000
972,-78.125000
973,-74.218750
974,-74.218750
975,-74.218750
976,-74.218750
977,-74.218750
978,-74.218750
979,-70.312500
980,-70.312500
981,-70.312500
982,-70.312500
983,-70.312500
984,-70.312500
985,-66.406250
986,-66.406250
987,-66.406250
988,-66.406250
989,-66.406250
990,-62.500000
991,-62.500000
992,-62.500000
993,-62.500000
994,-62.500000
995,-58.593750
996,-58.593750
997,-58.593750
998,-58.593750
999,-58.593750
1000,-54.687500
1001,-54.687500
1002,-54.687500
1003,-54.687500
1004,-54.687500
1005,-50.781250
1006,-50.781250
1007,-50.781250
1008,-50.781250
1009,-50.781250
1010,-46.875000
1011,-46.875000
1012,-46.875000
1013,-46.875000
1014,-46.875000
1015,-42.968750
1016,-42.968750
1017,-42.968750
1018,-42.968750
1019,-42.968750
1020,-39.062500
1021,-39.062500
1022,-39.062500
1023,-39.062500
1024,-39.062500
1025,-35.156250
1026,-35.156250
1027,-35.156250
1028,-35.156250
1029,-35.156250
1030,-31.250000
1031,-31.250000
1032,-31.250000
1033,-31.250000
1034,-31.250000
1035,-27.343750
1036,-27.343750
1037,-27.343750
1038,-27.343750
1039,-27.343750
1040,-27.343750
1041,-23.437500
1042,-23.437500
1043,-23.437500
1044,-23.437500
1045,-19.531250
1046,-19.531250
1047,-19.531250
1048,-19.531250
1049,-15.625000
1050,-15.625000
1051,-15.625000
1052,-15.625000
1053,-15.625000
1054,-15.625000
1055,-11.718750
1056,-11.718750
1057,-11.718750
1058,-11.718750
1059,-7.812500
1060,-7.812500
1061,-7.812500
1062,-7.812500
1063,-7.812500
1064,-7.812500
1065,-3.906250
1066,-3.906250
1067,-3.906250
1068,-3.906250
1069,-3.906250
1070,0.000000
1071,0.000000
1072,0.000000
1073,0.000000
1074,0.000000
1075,3.906250
1076,3.906250
1077,3.906250
1078,3.906250
1079,3.906250
1080,3.906250
1081,7.812500
1082,7.812500
1083,7.812500
1084,7.812500
1085,11.718750
1086,7.812500
1087,11.718750
1088,11.718750
1089,11.718750
1090,11.718750
1091,15.625000
1092,15.625000
1093,15.625000
1094,15.625000
1095,15.625000
1096,15.625000
1097,19.531250
1098,19.531250
1099,19.531250
1100,19.531250
1101,23.437500
1102,23.437500
1103,23.437500
1104,23.437500
1105,23.437500
1106,27.343750
1107,27.343750
1108,27.343750
1109,27.343750
1110,27.343750
1111,27.343750
1112,31.250000
1113,31.250000
1114,31.250000
1115,31.250000
1116,31.250000
1117,31.250000
1118,35.156250
1119,35.156250
1120,35.156250
1121,35.156250
1122,35.156250
1123,35.156250
1124,39.062500
1125,39.062500
1126,39.062500
1127,39.062500
1128,39.062500
1129,42.968750
1130,42.968750
1131,42.968750
1132,42.968750
1133,42.968750
1134,42.968750
1135,42.968750
1136,42.968750
1137,46.875000
1138,46.875000
1139,46.875000
1140,50.781250
1141,50.781250
1142,50.781250
1143,50.781250
1144,50.781250
1145,50.781250
1146,50.781250
1147,50.781250
1148,54.687500
1149,54.687500
1150,54.687500
1151,54.687500
1152,54.687500
1153,54.687500
1154,58.593750
1155,58.593750
1156,58.593750
1157,58.593750
1158,58.593750
1159,58.593750
1160,62.500000
1161,62.500000
1162,62.500000
1163,62.500000
1164,62.500000
1165,62.500000
1166,62.500000
1167,66.406250
1168,66.406250
1169,66.406250
1170,66.406250
1171,66.406250
1172,66.406250
1173,66.406250
1174,66.406250
1175,66.406250
1176,70.312500
1177,70.312500
1178,70.312500
1179,70.312500
1180,70.312500
1181,70.312500
1182,74.218750
1183,74.218750
1184,74.218750
1185,74.218750
1186,74.218750
1187,74.218750
1188,74.218750
1189,78.125000
1190,78.125000
1191,78.125000
1192,78.125000
1193,78.125000
1194,78.125000
1195,78.125000
1196,78.125000
1197,78.125000
1198,82.031250
1199,82.031250
1200,82.031250
1201,82.031250
1202,82.031250
1203,82.031250
1204,82.031250
1205,82.031250
1206,82.031250
1207,82.031250
1208,82.031250
1209,85.937500
1210,85.937500
1211,85.937500
1212,85.937500
1213,85.937500
1214,85.937500
1215,85.937500
1216,85.937500
1217,85.937500
1218,85.937500
1219,89.843750
1220,89.843750
1221,89.843750
1222,89.843750
1223,89.843750
1224,89.843750
1225,89.843750
1226,89.843750
1227,89.843750
1228,89.843750
1229,93.750000
1230,93.750000
1231,93.750000
1232,93.750000
1233,93.750000
1234,93.750000
1235,93.750000
1236,93.750000
1237,93.750000
1238,93.750000
1239,93.750000
1240,93.750000
1241,93.750000
1242,97.656250
1243,97.656250
1244,97.656250
1245,97.656250
1246,97.656250
1247,97.656250
1248,97.656250
1249,97.656250
1250,97.656250
1251,97.656250
1252,97.656250
1253,97.656250
1254,97.656250
1255,97.656250
1256,97.656250
1257,97.656250
1258,97.656250
1259,101.562500
1260,101.562500
1261,101.562500
1262,101.562500
1263,101.562500
1264,101.562500
1265,101.562500
1266,101.562500
1267,101.562500
1268,101.562500
1269,101.562500
1270,101.562500
1271,101.562500
1272,101.562500
1273,101.562500
1274,101.562500
1275,101.562500
1276,101.562500
1277,101.562500
1278,101.562500
1279,101.562500
1280,105.468750
1281,105.468750
1282,105.468750
1283,105.468750
1284,105.468750
1285,105.468750
1286,105.468750
1287,105.468750
1288,105.468750
1289,105.468750
1290,105.468750
1291,105.468750
1292,105.468750
1293,105.468750
1294,105.468750
1295,105.468750
1296,105.468750
1297,105.468750
1298,105.468750
1299,105.468750
1300,105.468750
1301,105.468750
1302,105.468750
1303,105.468750
1304,105.468750
1305,105.468750
1306,105.468750
1307,105.468750
1308,105.468750
1309,105.468750
1310,105.468750
1311,105.468750
1312,105.468750
1313,105.468750
1314,105.468750
1315,105.468750
1316,105.468750
1317,105.468750
1318,105.468750
1319,105.468750
1320,105.468750
1321,105.468750
1322,105.468750
1323,105.468750
1324,105.468750
1325,105.468750
1326,105.468750
1327,105.468750
1328,105.468750
