Channel              :,CH1
Frequency            :,1.010kHz
Period               :,0.990ms
PK-PK                :,312.5mV
Probe attenuation    :,1X
Voltage per ADC value:,0.244141mV
Time interval        :,1.00000us

index,CH1_Voltage(mV)
1,-78.125000
2,-78.125000
3,-74.218750
4,-74.218750
5,-74.218750
6,-74.218750
7,-70.312500
8,-70.312500
9,-70.312500
10,-70.312500
11,-66.406250
12,-66.406250
13,-66.406250
14,-62.500000
15,-62.500000
16,-62.500000
17,-62.500000
18,-62.500000
19,-58.593750
20,-58.593750
21,-58.593750
22,-58.593750
23,-54.687500
24,-54.687500
25,-54.687500
26,-50.781250
27,-50.781250
28,-50.781250
29,-50.781250
30,-46.875000
31,-46.875000
32,-46.875000
33,-46.875000
34,-42.968750
35,-42.968750
36,-42.968750
37,-39.062500
38,-39.062500
39,-39.062500
40,-39.062500
41,-39.062500
42,-35.156250
43,-35.156250
44,-35.156250
45,-31.250000
46,-31.250000
47,-31.250000
48,-31.250000
49,-31.250000
50,-27.343750
51,-27.343750
52,-27.343750
53,-23.437500
54,-23.437500
55,-23.437500
56,-19.531250
57,-23.437500
58,-19.531250
59,-19.531250
60,-19.531250
61,-15.625000
62,-15.625000
63,-15.625000
64,-11.718750
65,-11.718750
66,-11.718750
67,-11.718750
68,-7.812500
69,-7.812500
70,-7.812500
71,-7.812500
72,-3.906250
73,-3.906250
74,-3.906250
75,-3.906250
76,0.000000
77,0.000000
78,0.000000
79,0.000000
80,0.000000
81,3.906250
82,3.906250
83,3.906250
84,3.906250
85,7.812500
86,7.812500
87,7.812500
88,11.718750
89,11.718750
90,11.718750
91,11.718750
92,11.718750
93,15.625000
94,15.625000
95,15.625000
96,19.531250
97,19.531250
98,19.531250
99,19.531250
100,19.531250
101,23.437500
102,23.437500
103,23.437500
104,23.437500
105,27.343750
106,27.343750
107,27.343750
108,27.343750
109,31.250000
110,31.250000
111,31.250000
112,31.250000
113,31.250000
114,35.156250
115,35.156250
116,35.156250
117,39.062500
118,39.062500
119,39.062500
120,39.062500
121,39.062500
122,39.062500
123,42.968750
124,42.968750
125,42.968750
126,46.875000
127,46.875000
128,46.875000
129,46.875000
130,46.875000
131,50.781250
132,50.781250
133,50.781250
134,50.781250
135,54.687500
136,54.687500
137,54.687500
138,54.687500
139,54.687500
140,54.687500
141,58.593750
142,58.593750
143,58.593750
144,62.500000
145,62.500000
146,62.500000
147,62.500000
148,62.500000
149,62.500000
150,66.406250
151,66.406250
152,66.406250
153,66.406250
154,66.406250
155,70.312500
156,70.312500
157,70.312500
158,70.312500
159,70.312500
160,74.218750
161,74.218750
162,74.218750
163,74.218750
164,74.218750
165,78.125000
166,78.125000
167,78.125000
168,78.125000
169,78.125000
170,78.125000
171,82.031250
172,82.031250
173,82.031250
174,82.031250
175,82.031250
176,82.031250
177,85.937500
178,85.937500
179,85.937500
180,85.937500
181,85.937500
182,85.937500
183,89.843750
184,89.843750
185,89.843750
186,89.843750
187,89.843750
188,89.843750
189,93.750000
190,93.750000
191,93.750000
192,93.750000
193,93.750000
194,93.750000
195,97.656250
196,97.656250
197,97.656250
198,97.656250
199,97.656250
200,97.656250
201,97.656250
202,97.656250
203,101.562500
204,101.562500
205,101.562500
206,101.562500
207,101.562500
208,101.562500
209,101.562500
210,105.468750
211,105.468750
212,105.468750
213,105.468750
214,105.468750
215,105.468750
216,105.468750
217,105.468750
218,109.375000
219,109.375000
220,109.375000
221,109.375000
222,109.375000
223,109.375000
224,109.375000
225,113.281250
226,113.281250
227,113.281250
228,113.281250
229,113.281250
230,113.281250
231,113.281250
232,113.281250
233,113.281250
234,117.187500
235,117.187500
236,117.187500
237,117.187500
238,117.187500
239,117.187500
240,117.187500
241,117.187500
242,117.187500
243,117.187500
244,117.187500
245,117.187500
246,121.093750
247,117.187500
248,121.093750
249,121.093750
250,121.093750
251,121.093750
252,121.093750
253,121.093750
254,121.093750
255,125.000000
256,121.093750
257,125.000000
258,125.000000
259,121.093750
260,125.000000
261,125.000000
262,125.000000
263,125.000000
264,125.000000
265,125.000000
266,125.000000
267,125.000000
268,125.000000
269,125.000000
270,125.000000
271,125.000000
272,125.000000
273,125.000000
274,128.906250
275,128.906250
276,128.906250
277,128.906250
278,128.906250
279,128.906250
280,128.906250
281,128.906250
282,128.906250
283,128.906250
284,128.906250
285,128.906250
286,132.812500
287,128.906250
288,128.906250
289,128.906250
290,128.906250
291,128.906250
292,128.906250
293,132.812500
294,128.906250
295,128.906250
296,132.812500
297,132.812500
298,132.812500
299,132.812500
300,132.812500
301,128.906250
302,132.812500
303,128.906250
304,132.812500
305,132.812500
306,132.812500
307,132.812500
308,132.812500
309,132.812500
310,132.812500
311,132.812500
312,132.812500
313,132.812500
314,132.812500
315,132.812500
316,132.812500
317,132.812500
318,132.812500
319,132.812500
320,132.812500
321,132.812500
322,132.812500
323,132.812500
324,132.812500
325,132.812500
326,132.812500
327,132.812500
328,132.812500
329,132.812500
330,132.812500
331,132.812500
332,132.812500
333,128.906250
334,132.812500
335,132.812500
336,132.812500
337,132.812500
338,132.812500
339,132.812500
340,132.812500
341,128.906250
342,132.812500
343,132.812500
344,132.812500
345,128.906250
346,128.906250
347,128.906250
348,128.906250
349,128.906250
350,128.906250
351,128.906250
352,128.906250
353,128.906250
354,128.906250
355,128.906250
356,128.906250
357,128.906250
358,128.906250
359,128.906250
360,128.906250
361,128.906250
362,128.906250
363,128.906250
364,128.906250
365,128.906250
366,128.906250
367,125.000000
368,125.000000
369,125.000000
370,125.000000
371,125.000000
372,125.000000
373,125.000000
374,125.000000
375,125.000000
376,125.000000
377,125.000000
378,125.000000
379,125.000000
380,125.000000
381,121.093750
382,121.093750
383,121.093750
384,121.093750
385,121.093750
386,121.093750
387,121.093750
388,121.093750
389,121.093750
390,121.093750
391,121.093750
392,117.187500
393,121.093750
394,117.187500
395,117.187500
396,117.187500
397,117.187500
398,117.187500
399,117.187500
400,117.187500
401,117.187500
402,117.187500
403,113.281250
404,113.281250
405,113.281250
406,113.281250
407,113.281250
408,113.281250
409,113.281250
410,113.281250
411,113.281250
412,109.375000
413,109.375000
414,109.375000
415,109.375000
416,109.375000
417,109.375000
418,109.375000
419,109.375000
420,109.375000
421,105.468750
422,105.468750
423,105.468750
424,105.468750
425,105.468750
426,105.468750
427,105.468750
428,105.468750
429,101.562500
430,101.562500
431,101.562500
432,101.562500
433,101.562500
434,101.562500
435,101.562500
436,97.656250
437,97.656250
438,97.656250
439,97.656250
440,97.656250
441,97.656250
442,93.750000
443,93.750000
444,93.750000
445,93.750000
446,93.750000
447,93.750000
448,93.750000
449,89.843750
450,89.843750
451,89.843750
452,89.843750
453,89.843750
454,89.843750
455,89.843750
456,85.937500
457,85.937500
458,85.937500
459,85.937500
460,82.031250
461,82.031250
462,82.031250
463,82.031250
464,82.031250
465,82.031250
466,82.031250
467,78.125000
468,78.125000
469,78.125000
470,78.125000
471,78.125000
472,74.218750
473,74.218750
474,74.218750
475,74.218750
476,74.218750
477,70.312500
478,70.312500
479,70.312500
480,70.312500
481,70.312500
482,70.312500
483,66.406250
484,66.406250
485,66.406250
486,66.406250
487,62.500000
488,62.500000
489,62.500000
490,62.500000
491,62.500000
492,62.500000
493,58.593750
494,58.593750
495,58.593750
496,58.593750
497,54.687500
498,54.687500
499,54.687500
500,54.687500
501,54.687500
502,50.781250
503,50.781250
504,50.781250
505,50.781250
506,46.875000
507,46.875000
508,46.875000
509,46.875000
510,46.875000
511,42.968750
512,42.968750
513,42.968750
514,42.968750
515,39.062500
516,39.062500
517,39.062500
518,39.062500
519,35.156250
520,35.156250
521,35.156250
522,35.156250
523,31.250000
524,31.250000
525,31.250000
526,31.250000
527,31.250000
528,27.343750
529,27.343750
530,27.343750
531,27.343750
532,23.437500
533,23.437500
534,23.437500
535,23.437500
536,23.437500
537,19.531250
538,19.531250
539,19.531250
540,19.531250
541,15.625000
542,15.625000
543,15.625000
544,15.625000
545,11.718750
546,11.718750
547,11.718750
548,7.812500
549,7.812500
550,7.812500
551,7.812500
552,3.906250
553,3.906250
554,3.906250
555,3.906250
556,0.000000
557,0.000000
558,0.000000
559,-3.906250
560,-3.906250
561,-3.906250
562,-3.906250
563,-3.906250
564,-7.812500
565,-7.812500
566,-7.812500
567,-11.718750
568,-11.718750
569,-11.718750
570,-11.718750
571,-11.718750
572,-15.625000
573,-15.625000
574,-15.625000
575,-19.531250
576,-19.531250
577,-19.531250
578,-23.437500
579,-23.437500
580,-23.437500
581,-23.437500
582,-23.437500
583,-27.343750
584,-27.343750
585,-27.343750
586,-31.250000
587,-31.250000
588,-31.250000
589,-31.250000
590,-35.156250
591,-35.156250
592,-35.156250
593,-35.156250
594,-35.156250
595,-39.062500
596,-39.062500
597,-42.968750
598,-42.968750
599,-42.968750
600,-42.968750
601,-42.968750
602,-46.875000
603,-46.875000
604,-46.875000
605,-46.875000
606,-50.781250
607,-50.781250
608,-50.781250
609,-54.687500
610,-54.687500
611,-54.687500
612,-54.687500
613,-58.593750
614,-58.593750
615,-58.593750
616,-62.500000
617,-62.500000
618,-62.500000
619,-66.406250
620,-66.406250
621,-66.406250
622,-66.406250
623,-66.406250
624,-66.406250
625,-70.312500
626,-70.312500
627,-70.312500
628,-74.218750
629,-74.218750
630,-74.218750
631,-74.218750
632,-78.125000
633,-78.125000
634,-78.125000
635,-78.125000
636,-82.031250
637,-82.031250
638,-82.031250
639,-85.937500
640,-85.937500
641,-85.937500
642,-85.937500
643,-85.937500
644,-89.843750
645,-89.843750
646,-89.843750
647,-89.843750
648,-93.750000
649,-93.750000
650,-93.750000
651,-93.750000
652,-97.656250
653,-97.656250
654,-97.656250
655,-97.656250
656,-97.656250
657,-101.562500
658,-101.562500
659,-101.562500
660,-101.562500
661,-105.468750
662,-105.468750
663,-105.468750
664,-105.468750
665,-109.375000
666,-109.375000
667,-109.375000
668,-109.375000
669,-109.375000
670,-113.281250
671,-113.281250
672,-113.281250
673,-113.281250
674,-117.187500
675,-117.187500
676,-117.187500
677,-117.187500
678,-117.187500
679,-121.093750
680,-121.093750
681,-121.093750
682,-121.093750
683,-125.000000
684,-125.000000
685,-125.000000
686,-125.000000
687,-128.906250
688,-128.906250
689,-128.906250
690,-128.906250
691,-128.906250
692,-132.812500
693,-132.812500
694,-132.812500
695,-132.812500
696,-132.812500
697,-132.812500
698,-136.718750
699,-136.718750
700,-136.718750
701,-136.718750
702,-136.718750
703,-140.625000
704,-140.625000
705,-140.625000
706,-140.625000
707,-140.625000
708,-144.531250
709,-144.531250
710,-144.531250
711,-144.531250
712,-144.531250
713,-144.531250
714,-148.437500
715,-148.437500
716,-148.437500
717,-148.437500
718,-148.437500
719,-148.437500
720,-148.437500
721,-152.343750
722,-152.343750
723,-152.343750
724,-152.343750
725,-152.343750
726,-156.250000
727,-156.250000
728,-156.250000
729,-156.250000
730,-156.250000
731,-156.250000
732,-156.250000
733,-156.250000
734,-160.156250
735,-160.156250
736,-160.156250
737,-160.156250
738,-160.156250
739,-164.062500
740,-160.156250
741,-164.062500
742,-164.062500
743,-164.062500
744,-164.062500
745,-164.062500
746,-164.062500
747,-164.062500
748,-164.062500
749,-164.062500
750,-167.968750
751,-167.968750
752,-167.968750
753,-167.968750
754,-167.968750
755,-167.968750
756,-167.968750
757,-171.875000
758,-167.968750
759,-171.875000
760,-171.875000
761,-171.875000
762,-171.875000
763,-171.875000
764,-171.875000
765,-171.875000
766,-171.875000
767,-171.875000
768,-171.875000
769,-175.781250
770,-175.781250
771,-175.781250
772,-175.781250
773,-175.781250
774,-175.781250
775,-175.781250
776,-175.781250
777,-175.781250
778,-175.781250
779,-175.781250
780,-175.781250
781,-175.781250
782,-175.781250
783,-175.781250
784,-175.781250
785,-179.687500
786,-179.687500
787,-179.687500
788,-179.687500
789,-179.687500
790,-179.687500
791,-179.687500
792,-179.687500
793,-179.687500
794,-179.687500
795,-179.687500
796,-179.687500
797,-179.687500
798,-179.687500
799,-179.687500
800,-179.687500
801,-179.687500
802,-179.687500
803,-179.687500
804,-179.687500
805,-179.687500
806,-179.687500
807,-179.687500
808,-179.687500
809,-179.687500
810,-179.687500
811,-179.687500
812,-179.687500
813,-179.687500
814,-179.687500
815,-179.687500
816,-179.687500
817,-179.687500
818,-179.687500
819,-179.687500
820,-179.687500
821,-179.687500
822,-179.687500
823,-179.687500
824,-179.687500
825,-179.687500
826,-179.687500
827,-179.687500
828,-179.687500
829,-179.687500
830,-179.687500
831,-179.687500
832,-179.687500
833,-179.687500
834,-179.687500
835,-179.687500
836,-179.687500
837,-179.687500
838,-175.781250
839,-175.781250
840,-179.687500
841,-175.781250
842,-175.781250
843,-175.781250
844,-175.781250
845,-175.781250
846,-175.781250
847,-175.781250
848,-175.781250
849,-175.781250
850,-175.781250
851,-175.781250
852,-175.781250
853,-175.781250
854,-171.875000
855,-171.875000
856,-171.875000
857,-171.875000
858,-171.875000
859,-171.875000
860,-171.875000
861,-171.875000
862,-171.875000
863,-171.875000
864,-171.875000
865,-167.968750
866,-167.968750
867,-167.968750
868,-167.968750
869,-167.968750
870,-167.968750
871,-167.968750
872,-167.968750
873,-167.968750
874,-167.968750
875,-167.968750
876,-164.062500
877,-164.062500
878,-164.062500
879,-164.062500
880,-164.062500
881,-164.062500
882,-164.062500
883,-164.062500
884,-160.156250
885,-160.156250
886,-160.156250
887,-160.156250
888,-160.156250
889,-156.250000
890,-156.250000
891,-156.250000
892,-156.250000
893,-156.250000
894,-156.250000
895,-156.250000
896,-152.343750
897,-152.343750
898,-152.343750
899,-152.343750
900,-152.343750
901,-152.343750
902,-152.343750
903,-152.343750
904,-148.437500
905,-148.437500
906,-148.437500
907,-148.437500
908,-148.437500
909,-144.531250
910,-144.531250
911,-144.531250
912,-144.531250
913,-144.531250
914,-144.531250
915,-144.531250
916,-140.625000
917,-140.625000
918,-140.625000
919,-140.625000
920,-136.718750
921,-136.718750
922,-136.718750
923,-136.718750
924,-136.718750
925,-136.718750
926,-132.812500
927,-132.812500
928,-132.812500
929,-132.812500
930,-132.812500
931,-128.906250
932,-128.906250
933,-128.906250
934,-128.906250
935,-128.906250
936,-125.000000
937,-125.000000
938,-125.000000
939,-125.000000
940,-121.093750
941,-121.093750
942,-121.093750
943,-121.093750
944,-121.093750
945,-121.093750
946,-117.187500
947,-117.187500
948,-117.187500
949,-117.187500
950,-113.281250
951,-113.281250
952,-113.281250
953,-113.281250
954,-113.281250
955,-113.281250
956,-109.375000
957,-109.375000
958,-109.375000
959,-105.468750
960,-105.468750
961,-105.468750
962,-105.468750
963,-105.468750
964,-101.562500
965,-101.562500
966,-101.562500
967,-97.656250
968,-97.656250
969,-97.656250
970,-97.656250
971,-97.656250
972,-93.750000
973,-93.750000
974,-93.750000
975,-93.750000
976,-89.843750
977,-89.843750
978,-89.843750
979,-89.843750
980,-85.937500
981,-85.937500
982,-85.937500
983,-85.937500
984,-82.031250
985,-82.031250
986,-82.031250
987,-82.031250
988,-78.125000
989,-78.125000
990,-78.125000
991,-78.125000
992,-74.218750
993,-74.218750
994,-74.218750
995,-74.218750
996,-70.312500
997,-70.312500
998,-70.312500
999,-70.312500
1000,-66.406250
1001,-66.406250
1002,-66.406250
1003,-66.406250
1004,-62.500000
1005,-62.500000
1006,-62.500000
1007,-58.593750
1008,-58.593750
1009,-58.593750
1010,-58.593750
1011,-58.593750
1012,-54.687500
1013,-54.687500
1014,-54.687500
1015,-50.781250
1016,-50.781250
1017,-50.781250
1018,-50.781250
1019,-46.875000
1020,-46.875000
1021,-46.875000
1022,-46.875000
1023,-42.968750
1024,-42.968750
1025,-42.968750
1026,-42.968750
1027,-39.062500
1028,-39.062500
1029,-39.062500
1030,-39.062500
1031,-35.156250
1032,-35.156250
1033,-35.156250
1034,-35.156250
1035,-31.250000
1036,-31.250000
1037,-31.250000
1038,-27.343750
1039,-27.343750
1040,-27.343750
1041,-27.343750
1042,-27.343750
1043,-23.437500
1044,-23.437500
1045,-23.437500
1046,-19.531250
1047,-19.531250
1048,-19.531250
1049,-19.531250
1050,-15.625000
1051,-15.625000
1052,-15.625000
1053,-15.625000
1054,-11.718750
1055,-11.718750
1056,-11.718750
1057,-11.718750
1058,-7.812500
1059,-7.812500
1060,-7.812500
1061,-7.812500
1062,-3.906250
1063,-3.906250
1064,-3.906250
1065,0.000000
1066,0.000000
1067,0.000000
1068,0.000000
1069,3.906250
1070,3.906250
1071,3.906250
1072,7.812500
1073,7.812500
1074,7.812500
1075,7.812500
1076,7.812500
1077,11.718750
1078,11.718750
1079,11.718750
1080,11.718750
1081,15.625000
1082,11.718750
1083,15.625000
1084,15.625000
1085,19.531250
1086,19.531250
1087,19.531250
1088,19.531250
1089,19.531250
1090,23.437500
1091,23.437500
1092,23.437500
1093,23.437500
1094,27.343750
1095,27.343750
1096,27.343750
1097,27.343750
1098,31.250000
1099,31.250000
1100,31.250000
1101,31.250000
1102,31.250000
1103,35.156250
1104,35.156250
1105,35.156250
1106,39.062500
1107,39.062500
1108,39.062500
1109,39.062500
1110,39.062500
1111,42.968750
1112,42.968750
1113,42.968750
1114,42.968750
1115,42.968750
1116,46.875000
1117,46.875000
1118,46.875000
1119,46.875000
1120,50.781250
1121,50.781250
1122,50.781250
1123,50.781250
1124,50.781250
1125,50.781250
1126,54.687500
1127,54.687500
1128,54.687500
1129,54.687500
1130,58.593750
1131,58.593750
1132,58.593750
1133,58.593750
1134,58.593750
1135,62.500000
1136,62.500000
1137,62.500000
1138,62.500000
1139,66.406250
1140,66.406250
1141,66.406250
1142,66.406250
1143,66.406250
1144,66.406250
1145,70.312500
1146,70.312500
1147,70.312500
1148,70.312500
1149,70.312500
1150,70.312500
1151,74.218750
1152,74.218750
1153,74.218750
1154,74.218750
1155,78.125000
1156,78.125000
1157,78.125000
1158,78.125000
1159,78.125000
1160,82.031250
1161,82.031250
1162,82.031250
1163,82.031250
1164,82.031250
1165,82.031250
1166,85.937500
1167,85.937500
1168,85.937500
1169,85.937500
1170,85.937500
1171,85.937500
1172,85.937500
1173,89.843750
1174,89.843750
1175,89.843750
1176,89.843750
1177,89.843750
1178,93.750000
1179,93.750000
1180,93.750000
1181,93.750000
1182,93.750000
1183,93.750000
1184,93.750000
1185,97.656250
1186,97.656250
1187,97.656250
1188,97.656250
1189,97.656250
1190,97.656250
1191,97.656250
1192,101.562500
1193,101.562500
1194,101.562500
1195,101.562500
1196,101.562500
1197,101.562500
1198,101.562500
1199,105.468750
1200,105.468750
1201,105.468750
1202,105.468750
1203,105.468750
1204,105.468750
1205,105.468750
1206,109.375000
1207,109.375000
1208,109.375000
1209,109.375000
1210,109.375000
1211,109.375000
1212,109.375000
1213,109.375000
1214,109.375000
1215,113.281250
1216,113.281250
1217,113.281250
1218,113.281250
1219,113.281250
1220,113.281250
1221,113.281250
1222,113.281250
1223,113.281250
1224,117.187500
1225,117.187500
1226,117.187500
1227,117.187500
1228,117.187500
1229,117.187500
1230,117.187500
1231,117.187500
1232,117.187500
1233,117.187500
1234,117.187500
1235,121.093750
1236,121.093750
1237,121.093750
1238,121.093750
1239,121.093750
1240,121.093750
1241,121.093750
1242,121.093750
1243,121.093750
1244,121.093750
1245,121.093750
1246,121.093750
1247,125.000000
1248,125.000000
1249,125.000000
1250,125.000000
1251,125.000000
1252,125.000000
1253,125.000000
1254,125.000000
1255,125.000000
1256,125.000000
1257,125.000000
1258,125.000000
1259,125.000000
1260,125.000000
1261,125.000000
1262,128.906250
1263,128.906250
1264,128.906250
1265,128.906250
1266,128.906250
1267,128.906250
1268,128.906250
1269,128.906250
1270,128.906250
1271,128.906250
1272,128.906250
1273,128.906250
1274,128.906250
1275,128.906250
1276,128.906250
1277,128.906250
1278,128.906250
1279,128.906250
1280,128.906250
1281,128.906250
1282,128.906250
1283,128.906250
1284,128.906250
1285,128.906250
1286,132.812500
1287,132.812500
1288,132.812500
1289,132.812500
1290,132.812500
1291,132.812500
1292,132.812500
1293,128.906250
1294,132.812500
1295,132.812500
1296,132.812500
1297,132.812500
1298,132.812500
1299,132.812500
1300,132.812500
1301,132.812500
1302,132.812500
1303,132.812500
1304,132.812500
1305,132.812500
1306,132.812500
1307,132.812500
1308,132.812500
1309,132.812500
1310,132.812500
1311,132.812500
1312,132.812500
